File: Data/113xx/Projected_0-200/1.5deg-2.0deg-rsm-2h30mins_11358-as-grown_004_w-scans_w_000-148.dat
# filename: 1.5deg-2.0deg-rsm-2h30mins_11358-as-grown_004_w-scans.dat
# reflection: (004)
# type: Projection of 148 omega (rotated)  scans
# x-axis: omega
#
# Omega	2Theta	Phi  	Chi   	X    	Y    	Z    	q_para	q_perp	Intensity
# [deg]	[deg] 	[deg]	[deg] 	[mm] 	[mm] 	[mm] 	[nm-1]	[nm-1]	[counts/s]
32.8895	68.1496	2.82	-0.23	10.00	-20.00	7.326	0.15045	7.27188	1.2
32.9095	68.1496	2.82	-0.23	10.00	-20.00	7.326	0.14792	7.27193	1.5
32.9295	68.1496	2.82	-0.23	10.00	-20.00	7.326	0.14538	7.27198	1.4
32.9495	68.1496	2.82	-0.23	10.00	-20.00	7.326	0.14284	7.27203	1.1
32.9695	68.1496	2.82	-0.23	10.00	-20.00	7.326	0.14030	7.27208	1.2
32.9895	68.1496	2.82	-0.23	10.00	-20.00	7.326	0.13776	7.27213	1.3
33.0095	68.1496	2.82	-0.23	10.00	-20.00	7.326	0.13522	7.27218	1.1
33.0295	68.1496	2.82	-0.23	10.00	-20.00	7.326	0.13268	7.27223	1.7
33.0495	68.1496	2.82	-0.23	10.00	-20.00	7.326	0.13015	7.27227	1.4
33.0695	68.1496	2.82	-0.23	10.00	-20.00	7.326	0.12761	7.27232	1.6
33.0895	68.1496	2.82	-0.23	10.00	-20.00	7.326	0.12507	7.27236	1.4
33.1095	68.1496	2.82	-0.23	10.00	-20.00	7.326	0.12253	7.27240	1.6
33.1295	68.1496	2.82	-0.23	10.00	-20.00	7.326	0.11999	7.27245	1.3
33.1495	68.1496	2.82	-0.23	10.00	-20.00	7.326	0.11745	7.27249	1.4
33.1695	68.1496	2.82	-0.23	10.00	-20.00	7.326	0.11492	7.27253	1.8
33.1895	68.1496	2.82	-0.23	10.00	-20.00	7.326	0.11238	7.27257	1.3
33.2095	68.1496	2.82	-0.23	10.00	-20.00	7.326	0.10984	7.27261	1.7
33.2295	68.1496	2.82	-0.23	10.00	-20.00	7.326	0.10730	7.27264	1.4
33.2495	68.1496	2.82	-0.23	10.00	-20.00	7.326	0.10476	7.27268	1.8
33.2695	68.1496	2.82	-0.23	10.00	-20.00	7.326	0.10222	7.27272	1.9
33.2895	68.1496	2.82	-0.23	10.00	-20.00	7.326	0.09968	7.27275	2.1
33.3095	68.1496	2.82	-0.23	10.00	-20.00	7.326	0.09714	7.27279	1.9
33.3295	68.1496	2.82	-0.23	10.00	-20.00	7.326	0.09461	7.27282	2.2
33.3495	68.1496	2.82	-0.23	10.00	-20.00	7.326	0.09207	7.27285	2.1
33.3695	68.1496	2.82	-0.23	10.00	-20.00	7.326	0.08953	7.27288	2.3
33.3895	68.1496	2.82	-0.23	10.00	-20.00	7.326	0.08699	7.27292	2.6
33.4095	68.1496	2.82	-0.23	10.00	-20.00	7.326	0.08445	7.27295	2.7
33.4295	68.1496	2.82	-0.23	10.00	-20.00	7.326	0.08191	7.27297	3.2
33.4495	68.1496	2.82	-0.23	10.00	-20.00	7.326	0.07937	7.27300	3.3
33.4695	68.1496	2.82	-0.23	10.00	-20.00	7.326	0.07684	7.27303	4.5
33.4895	68.1496	2.82	-0.23	10.00	-20.00	7.326	0.07430	7.27306	6.7
33.5095	68.1496	2.82	-0.23	10.00	-20.00	7.326	0.07176	7.27308	9.0
33.5295	68.1496	2.82	-0.23	10.00	-20.00	7.326	0.06922	7.27311	13.9
33.5495	68.1496	2.82	-0.23	10.00	-20.00	7.326	0.06668	7.27313	17.9
33.5695	68.1496	2.82	-0.23	10.00	-20.00	7.326	0.06414	7.27315	26.5
33.5895	68.1496	2.82	-0.23	10.00	-20.00	7.326	0.06160	7.27317	38.7
33.6095	68.1496	2.82	-0.23	10.00	-20.00	7.326	0.05906	7.27320	52.9
33.6295	68.1496	2.82	-0.23	10.00	-20.00	7.326	0.05652	7.27322	73.3
33.6495	68.1496	2.82	-0.23	10.00	-20.00	7.326	0.05399	7.27324	103.1
33.6695	68.1496	2.82	-0.23	10.00	-20.00	7.326	0.05145	7.27325	138.3
33.6895	68.1496	2.82	-0.23	10.00	-20.00	7.326	0.04891	7.27327	172.8
33.7095	68.1496	2.82	-0.23	10.00	-20.00	7.326	0.04637	7.27329	224.4
33.7295	68.1496	2.82	-0.23	10.00	-20.00	7.326	0.04383	7.27330	281.1
33.7495	68.1496	2.82	-0.23	10.00	-20.00	7.326	0.04129	7.27332	344.9
33.7695	68.1496	2.82	-0.23	10.00	-20.00	7.326	0.03875	7.27333	415.9
33.7895	68.1496	2.82	-0.23	10.00	-20.00	7.326	0.03621	7.27335	480.5
33.8095	68.1496	2.82	-0.23	10.00	-20.00	7.326	0.03367	7.27336	547.7
33.8295	68.1496	2.82	-0.23	10.00	-20.00	7.326	0.03114	7.27337	613.4
33.8495	68.1496	2.82	-0.23	10.00	-20.00	7.326	0.02860	7.27338	696.5
33.8695	68.1496	2.82	-0.23	10.00	-20.00	7.326	0.02606	7.27339	940.1
33.8895	68.1496	2.82	-0.23	10.00	-20.00	7.326	0.02352	7.27340	6374.3
33.9095	68.1496	2.82	-0.23	10.00	-20.00	7.326	0.02098	7.27341	998.1
33.9295	68.1496	2.82	-0.23	10.00	-20.00	7.326	0.01844	7.27341	683.6
33.9495	68.1496	2.82	-0.23	10.00	-20.00	7.326	0.01590	7.27342	585.3
33.9695	68.1496	2.82	-0.23	10.00	-20.00	7.326	0.01336	7.27342	519.8
33.9895	68.1496	2.82	-0.23	10.00	-20.00	7.326	0.01082	7.27343	459.6
34.0095	68.1496	2.82	-0.23	10.00	-20.00	7.326	0.00829	7.27343	387.3
34.0295	68.1496	2.82	-0.23	10.00	-20.00	7.326	0.00575	7.27343	331.8
34.0495	68.1496	2.82	-0.23	10.00	-20.00	7.326	0.00321	7.27343	276.6
34.0695	68.1496	2.82	-0.23	10.00	-20.00	7.326	0.00067	7.27344	232.7
34.0895	68.1496	2.82	-0.23	10.00	-20.00	7.326	-0.00187	7.27344	183.3
34.1095	68.1496	2.82	-0.23	10.00	-20.00	7.326	-0.00441	7.27343	145.1
34.1295	68.1496	2.82	-0.23	10.00	-20.00	7.326	-0.00695	7.27343	110.3
34.1495	68.1496	2.82	-0.23	10.00	-20.00	7.326	-0.00949	7.27343	82.1
34.1695	68.1496	2.82	-0.23	10.00	-20.00	7.326	-0.01203	7.27343	61.5
34.1895	68.1496	2.82	-0.23	10.00	-20.00	7.326	-0.01456	7.27342	46.1
34.2095	68.1496	2.82	-0.23	10.00	-20.00	7.326	-0.01710	7.27342	34.6
34.2295	68.1496	2.82	-0.23	10.00	-20.00	7.326	-0.01964	7.27341	24.8
34.2495	68.1496	2.82	-0.23	10.00	-20.00	7.326	-0.02218	7.27340	17.2
34.2695	68.1496	2.82	-0.23	10.00	-20.00	7.326	-0.02472	7.27339	12.2
34.2895	68.1496	2.82	-0.23	10.00	-20.00	7.326	-0.02726	7.27338	8.6
34.3095	68.1496	2.82	-0.23	10.00	-20.00	7.326	-0.02980	7.27337	5.9
34.3295	68.1496	2.82	-0.23	10.00	-20.00	7.326	-0.03234	7.27336	4.1
34.3495	68.1496	2.82	-0.23	10.00	-20.00	7.326	-0.03488	7.27335	3.2
34.3695	68.1496	2.82	-0.23	10.00	-20.00	7.326	-0.03741	7.27334	2.7
34.3895	68.1496	2.82	-0.23	10.00	-20.00	7.326	-0.03995	7.27333	2.3
34.4095	68.1496	2.82	-0.23	10.00	-20.00	7.326	-0.04249	7.27331	2.1
34.4295	68.1496	2.82	-0.23	10.00	-20.00	7.326	-0.04503	7.27330	2.1
34.4495	68.1496	2.82	-0.23	10.00	-20.00	7.326	-0.04757	7.27328	1.8
34.4695	68.1496	2.82	-0.23	10.00	-20.00	7.326	-0.05011	7.27326	1.7
34.4895	68.1496	2.82	-0.23	10.00	-20.00	7.326	-0.05265	7.27325	1.7
34.5095	68.1496	2.82	-0.23	10.00	-20.00	7.326	-0.05519	7.27323	1.3
34.5295	68.1496	2.82	-0.23	10.00	-20.00	7.326	-0.05773	7.27321	1.6
34.5495	68.1496	2.82	-0.23	10.00	-20.00	7.326	-0.06026	7.27319	1.5
34.5695	68.1496	2.82	-0.23	10.00	-20.00	7.326	-0.06280	7.27316	1.5
34.5895	68.1496	2.82	-0.23	10.00	-20.00	7.326	-0.06534	7.27314	1.5
34.6095	68.1496	2.82	-0.23	10.00	-20.00	7.326	-0.06788	7.27312	1.4
34.6295	68.1496	2.82	-0.23	10.00	-20.00	7.326	-0.07042	7.27310	1.5
34.6495	68.1496	2.82	-0.23	10.00	-20.00	7.326	-0.07296	7.27307	1.3
34.6695	68.1496	2.82	-0.23	10.00	-20.00	7.326	-0.07550	7.27304	1.3
34.6895	68.1496	2.82	-0.23	10.00	-20.00	7.326	-0.07803	7.27302	1.5
34.7095	68.1496	2.82	-0.23	10.00	-20.00	7.326	-0.08057	7.27299	1.2
34.7295	68.1496	2.82	-0.23	10.00	-20.00	7.326	-0.08311	7.27296	1.3
34.7495	68.1496	2.82	-0.23	10.00	-20.00	7.326	-0.08565	7.27293	1.3
34.7695	68.1496	2.82	-0.23	10.00	-20.00	7.326	-0.08819	7.27290	1.1
34.7895	68.1496	2.82	-0.23	10.00	-20.00	7.326	-0.09073	7.27287	1.2
34.8095	68.1496	2.82	-0.23	10.00	-20.00	7.326	-0.09327	7.27284	1.3
34.8295	68.1496	2.82	-0.23	10.00	-20.00	7.326	-0.09581	7.27280	1.2
34.8495	68.1496	2.82	-0.23	10.00	-20.00	7.326	-0.09835	7.27277	1.3
34.8695	68.1496	2.82	-0.23	10.00	-20.00	7.326	-0.10088	7.27274	1.1
34.6602	67.7022	2.80	-0.23	9.93	-19.87	7.277	-0.10273	7.22483	1.2