File: Data/113xx/Projected_0-200/2.0deg-2.0deg-rsm-3h10mins_11354-annealed_224_w-scans_w_000-198.dat
# filename: 2.0deg-2.0deg-rsm-3h10mins_11354-annealed_224_w-scans.dat
# reflection: (004)
# type: Projection of 198 omega (rotated)  scans
# x-axis: omega
#
# Omega	2Theta	Phi  	Chi   	X    	Y    	Z    	q_para	q_perp	Intensity
# [deg]	[deg] 	[deg]	[deg] 	[mm] 	[mm] 	[mm] 	[nm-1]	[nm-1]	[counts/s]
7.7852	87.0542	-0.10	0.10	0.00	-22.75	7.333	5.22241	7.25654	1.5
7.8052	87.0542	-0.10	0.10	0.00	-22.75	7.333	5.21987	7.25837	1.3
7.8252	87.0542	-0.10	0.10	0.00	-22.75	7.333	5.21734	7.26019	1.3
7.8452	87.0542	-0.10	0.10	0.00	-22.75	7.333	5.21481	7.26201	1.4
7.8652	87.0542	-0.10	0.10	0.00	-22.75	7.333	5.21227	7.26383	1.1
7.8852	87.0542	-0.10	0.10	0.00	-22.75	7.333	5.20973	7.26565	1.4
7.9052	87.0542	-0.10	0.10	0.00	-22.75	7.333	5.20720	7.26747	1.4
7.9252	87.0542	-0.10	0.10	0.00	-22.75	7.333	5.20466	7.26928	1.4
7.9452	87.0542	-0.10	0.10	0.00	-22.75	7.333	5.20212	7.27110	1.4
7.9652	87.0542	-0.10	0.10	0.00	-22.75	7.333	5.19958	7.27292	1.4
7.9852	87.0542	-0.10	0.10	0.00	-22.75	7.333	5.19705	7.27473	1.4
8.0052	87.0542	-0.10	0.10	0.00	-22.75	7.333	5.19451	7.27654	1.8
8.0252	87.0542	-0.10	0.10	0.00	-22.75	7.333	5.19197	7.27836	1.6
8.0452	87.0542	-0.10	0.10	0.00	-22.75	7.333	5.18942	7.28017	1.7
8.0652	87.0542	-0.10	0.10	0.00	-22.75	7.333	5.18688	7.28198	1.6
8.0852	87.0542	-0.10	0.10	0.00	-22.75	7.333	5.18434	7.28379	1.8
8.1052	87.0542	-0.10	0.10	0.00	-22.75	7.333	5.18180	7.28560	1.8
8.1252	87.0542	-0.10	0.10	0.00	-22.75	7.333	5.17925	7.28741	1.8
8.1452	87.0542	-0.10	0.10	0.00	-22.75	7.333	5.17671	7.28921	2.1
8.1652	87.0542	-0.10	0.10	0.00	-22.75	7.333	5.17417	7.29102	1.7
8.1852	87.0542	-0.10	0.10	0.00	-22.75	7.333	5.17162	7.29283	2.0
8.2052	87.0542	-0.10	0.10	0.00	-22.75	7.333	5.16907	7.29463	1.6
8.2252	87.0542	-0.10	0.10	0.00	-22.75	7.333	5.16653	7.29644	2.1
8.2452	87.0542	-0.10	0.10	0.00	-22.75	7.333	5.16398	7.29824	2.1
8.2652	87.0542	-0.10	0.10	0.00	-22.75	7.333	5.16143	7.30004	2.2
8.2852	87.0542	-0.10	0.10	0.00	-22.75	7.333	5.15888	7.30184	2.2
8.3052	87.0542	-0.10	0.10	0.00	-22.75	7.333	5.15633	7.30364	2.3
8.3252	87.0542	-0.10	0.10	0.00	-22.75	7.333	5.15378	7.30544	2.8
8.3452	87.0542	-0.10	0.10	0.00	-22.75	7.333	5.15123	7.30724	3.0
8.3652	87.0542	-0.10	0.10	0.00	-22.75	7.333	5.14868	7.30904	3.5
8.3852	87.0542	-0.10	0.10	0.00	-22.75	7.333	5.14613	7.31083	3.6
8.4052	87.0542	-0.10	0.10	0.00	-22.75	7.333	5.14358	7.31263	4.5
8.4252	87.0542	-0.10	0.10	0.00	-22.75	7.333	5.14103	7.31443	5.3
8.4452	87.0542	-0.10	0.10	0.00	-22.75	7.333	5.13847	7.31622	7.2
8.4652	87.0542	-0.10	0.10	0.00	-22.75	7.333	5.13592	7.31801	11.0
8.4852	87.0542	-0.10	0.10	0.00	-22.75	7.333	5.13336	7.31981	17.2
8.5052	87.0542	-0.10	0.10	0.00	-22.75	7.333	5.13081	7.32160	24.0
8.5252	87.0542	-0.10	0.10	0.00	-22.75	7.333	5.12825	7.32339	36.1
8.5452	87.0542	-0.10	0.10	0.00	-22.75	7.333	5.12570	7.32518	51.9
8.5652	87.0542	-0.10	0.10	0.00	-22.75	7.333	5.12314	7.32696	77.6
8.5852	87.0542	-0.10	0.10	0.00	-22.75	7.333	5.12058	7.32875	108.2
8.6052	87.0542	-0.10	0.10	0.00	-22.75	7.333	5.11802	7.33054	146.6
8.6252	87.0542	-0.10	0.10	0.00	-22.75	7.333	5.11546	7.33233	195.3
8.6452	87.0542	-0.10	0.10	0.00	-22.75	7.333	5.11290	7.33411	253.7
8.6652	87.0542	-0.10	0.10	0.00	-22.75	7.333	5.11034	7.33590	322.8
8.6852	87.0542	-0.10	0.10	0.00	-22.75	7.333	5.10778	7.33768	397.5
8.7052	87.0542	-0.10	0.10	0.00	-22.75	7.333	5.10522	7.33946	482.4
8.7252	87.0542	-0.10	0.10	0.00	-22.75	7.333	5.10266	7.34124	572.7
8.7452	87.0542	-0.10	0.10	0.00	-22.75	7.333	5.10010	7.34302	658.8
8.7652	87.0542	-0.10	0.10	0.00	-22.75	7.333	5.09753	7.34480	829.5
8.7852	87.0542	-0.10	0.10	0.00	-22.75	7.333	5.09497	7.34658	2936.9
8.8052	87.0542	-0.10	0.10	0.00	-22.75	7.333	5.09240	7.34836	903.3
8.8252	87.0542	-0.10	0.10	0.00	-22.75	7.333	5.08984	7.35014	716.5
8.8452	87.0542	-0.10	0.10	0.00	-22.75	7.333	5.08727	7.35191	618.5
8.8652	87.0542	-0.10	0.10	0.00	-22.75	7.333	5.08470	7.35369	525.1
8.8852	87.0542	-0.10	0.10	0.00	-22.75	7.333	5.08214	7.35546	439.1
8.9052	87.0542	-0.10	0.10	0.00	-22.75	7.333	5.07957	7.35724	364.7
8.9252	87.0542	-0.10	0.10	0.00	-22.75	7.333	5.07700	7.35901	283.9
8.9452	87.0542	-0.10	0.10	0.00	-22.75	7.333	5.07443	7.36078	216.0
8.9652	87.0542	-0.10	0.10	0.00	-22.75	7.333	5.07186	7.36255	159.6
8.9852	87.0542	-0.10	0.10	0.00	-22.75	7.333	5.06929	7.36432	117.8
9.0052	87.0542	-0.10	0.10	0.00	-22.75	7.333	5.06672	7.36609	80.7
9.0252	87.0542	-0.10	0.10	0.00	-22.75	7.333	5.06415	7.36786	56.8
9.0452	87.0542	-0.10	0.10	0.00	-22.75	7.333	5.06158	7.36963	38.1
9.0652	87.0542	-0.10	0.10	0.00	-22.75	7.333	5.05901	7.37139	27.2
9.0852	87.0542	-0.10	0.10	0.00	-22.75	7.333	5.05643	7.37316	17.7
9.1052	87.0542	-0.10	0.10	0.00	-22.75	7.333	5.05386	7.37492	13.9
9.1252	87.0542	-0.10	0.10	0.00	-22.75	7.333	5.05128	7.37669	10.0
9.1452	87.0542	-0.10	0.10	0.00	-22.75	7.333	5.04871	7.37845	7.2
9.1652	87.0542	-0.10	0.10	0.00	-22.75	7.333	5.04613	7.38021	5.7
9.1852	87.0542	-0.10	0.10	0.00	-22.75	7.333	5.04356	7.38197	4.4
9.2052	87.0542	-0.10	0.10	0.00	-22.75	7.333	5.04098	7.38373	3.9
9.2252	87.0542	-0.10	0.10	0.00	-22.75	7.333	5.03840	7.38549	3.8
9.2452	87.0542	-0.10	0.10	0.00	-22.75	7.333	5.03582	7.38725	3.3
9.2652	87.0542	-0.10	0.10	0.00	-22.75	7.333	5.03324	7.38901	3.1
9.2852	87.0542	-0.10	0.10	0.00	-22.75	7.333	5.03066	7.39076	2.8
9.3052	87.0542	-0.10	0.10	0.00	-22.75	7.333	5.02808	7.39252	2.3
9.3252	87.0542	-0.10	0.10	0.00	-22.75	7.333	5.02550	7.39427	2.3
9.3452	87.0542	-0.10	0.10	0.00	-22.75	7.333	5.02292	7.39603	2.2
9.3652	87.0542	-0.10	0.10	0.00	-22.75	7.333	5.02034	7.39778	2.3
9.3852	87.0542	-0.10	0.10	0.00	-22.75	7.333	5.01776	7.39953	2.4
9.4052	87.0542	-0.10	0.10	0.00	-22.75	7.333	5.01517	7.40128	2.3
9.4252	87.0542	-0.10	0.10	0.00	-22.75	7.333	5.01259	7.40303	2.1
9.4452	87.0542	-0.10	0.10	0.00	-22.75	7.333	5.01001	7.40478	1.8
9.4652	87.0542	-0.10	0.10	0.00	-22.75	7.333	5.00742	7.40653	2.1
9.4852	87.0542	-0.10	0.10	0.00	-22.75	7.333	5.00483	7.40828	2.1
9.5052	87.0542	-0.10	0.10	0.00	-22.75	7.333	5.00225	7.41003	1.9
9.5252	87.0542	-0.10	0.10	0.00	-22.75	7.333	4.99966	7.41177	1.9
9.5452	87.0542	-0.10	0.10	0.00	-22.75	7.333	4.99707	7.41352	2.2
9.5652	87.0542	-0.10	0.10	0.00	-22.75	7.333	4.99449	7.41526	2.0
9.5852	87.0542	-0.10	0.10	0.00	-22.75	7.333	4.99190	7.41700	1.8
9.6052	87.0542	-0.10	0.10	0.00	-22.75	7.333	4.98931	7.41875	1.9
9.6252	87.0542	-0.10	0.10	0.00	-22.75	7.333	4.98672	7.42049	1.9
9.6452	87.0542	-0.10	0.10	0.00	-22.75	7.333	4.98413	7.42223	1.9
9.6652	87.0542	-0.10	0.10	0.00	-22.75	7.333	4.98154	7.42397	1.7
9.6852	87.0542	-0.10	0.10	0.00	-22.75	7.333	4.97894	7.42570	1.7
9.7052	87.0542	-0.10	0.10	0.00	-22.75	7.333	4.97635	7.42744	1.3
9.7252	87.0542	-0.10	0.10	0.00	-22.75	7.333	4.97376	7.42918	1.4
9.7452	87.0542	-0.10	0.10	0.00	-22.75	7.333	4.97117	7.43091	1.8
9.7652	87.0542	-0.10	0.10	0.00	-22.75	7.333	4.96857	7.43265	1.4
9.7409	86.6267	-0.10	0.10	0.00	-22.64	7.296	4.94149	7.39770	1.8