File: Data/113xx/Projected_0-200/2.0deg-2.0deg-rsm-3h10mins_11354-as-grown_224_w-scans_w_000-198.dat
# filename: 2.0deg-2.0deg-rsm-3h10mins_11354-as-grown_224_w-scans.dat
# reflection: (004)
# type: Projection of 198 omega (rotated)  scans
# x-axis: omega
#
# Omega	2Theta	Phi  	Chi   	X    	Y    	Z    	q_para	q_perp	Intensity
# [deg]	[deg] 	[deg]	[deg] 	[mm] 	[mm] 	[mm] 	[nm-1]	[nm-1]	[counts/s]
6.8766	87.0520	1.74	0.08	10.00	20.00	7.278	5.33657	7.17278	1.3
6.8966	87.0520	1.74	0.08	10.00	20.00	7.278	5.33407	7.17464	1.3
6.9166	87.0520	1.74	0.08	10.00	20.00	7.278	5.33157	7.17650	1.2
6.9366	87.0520	1.74	0.08	10.00	20.00	7.278	5.32906	7.17836	1.4
6.9566	87.0520	1.74	0.08	10.00	20.00	7.278	5.32655	7.18022	1.6
6.9766	87.0520	1.74	0.08	10.00	20.00	7.278	5.32405	7.18208	1.4
6.9966	87.0520	1.74	0.08	10.00	20.00	7.278	5.32154	7.18394	1.5
7.0166	87.0520	1.74	0.08	10.00	20.00	7.278	5.31903	7.18579	1.3
7.0366	87.0520	1.74	0.08	10.00	20.00	7.278	5.31652	7.18765	1.3
7.0566	87.0520	1.74	0.08	10.00	20.00	7.278	5.31401	7.18951	1.5
7.0766	87.0520	1.74	0.08	10.00	20.00	7.278	5.31150	7.19136	1.6
7.0966	87.0520	1.74	0.08	10.00	20.00	7.278	5.30899	7.19321	1.7
7.1166	87.0520	1.74	0.08	10.00	20.00	7.278	5.30648	7.19507	1.8
7.1366	87.0520	1.74	0.08	10.00	20.00	7.278	5.30397	7.19692	1.5
7.1566	87.0520	1.74	0.08	10.00	20.00	7.278	5.30146	7.19877	1.8
7.1766	87.0520	1.74	0.08	10.00	20.00	7.278	5.29895	7.20062	1.6
7.1966	87.0520	1.74	0.08	10.00	20.00	7.278	5.29643	7.20247	1.6
7.2166	87.0520	1.74	0.08	10.00	20.00	7.278	5.29392	7.20432	1.8
7.2366	87.0520	1.74	0.08	10.00	20.00	7.278	5.29140	7.20616	1.9
7.2566	87.0520	1.74	0.08	10.00	20.00	7.278	5.28889	7.20801	1.8
7.2766	87.0520	1.74	0.08	10.00	20.00	7.278	5.28637	7.20986	2.1
7.2966	87.0520	1.74	0.08	10.00	20.00	7.278	5.28385	7.21170	2.1
7.3166	87.0520	1.74	0.08	10.00	20.00	7.278	5.28133	7.21355	2.4
7.3366	87.0520	1.74	0.08	10.00	20.00	7.278	5.27882	7.21539	2.0
7.3566	87.0520	1.74	0.08	10.00	20.00	7.278	5.27630	7.21723	2.2
7.3766	87.0520	1.74	0.08	10.00	20.00	7.278	5.27378	7.21907	2.6
7.3966	87.0520	1.74	0.08	10.00	20.00	7.278	5.27126	7.22091	2.3
7.4166	87.0520	1.74	0.08	10.00	20.00	7.278	5.26874	7.22275	2.8
7.4366	87.0520	1.74	0.08	10.00	20.00	7.278	5.26622	7.22459	2.7
7.4566	87.0520	1.74	0.08	10.00	20.00	7.278	5.26369	7.22643	3.0
7.4766	87.0520	1.74	0.08	10.00	20.00	7.278	5.26117	7.22827	3.0
7.4966	87.0520	1.74	0.08	10.00	20.00	7.278	5.25865	7.23010	3.6
7.5166	87.0520	1.74	0.08	10.00	20.00	7.278	5.25612	7.23194	4.5
7.5366	87.0520	1.74	0.08	10.00	20.00	7.278	5.25360	7.23377	5.7
7.5566	87.0520	1.74	0.08	10.00	20.00	7.278	5.25107	7.23560	8.2
7.5766	87.0520	1.74	0.08	10.00	20.00	7.278	5.24855	7.23744	10.6
7.5966	87.0520	1.74	0.08	10.00	20.00	7.278	5.24602	7.23927	15.8
7.6166	87.0520	1.74	0.08	10.00	20.00	7.278	5.24349	7.24110	22.5
7.6366	87.0520	1.74	0.08	10.00	20.00	7.278	5.24096	7.24293	32.4
7.6566	87.0520	1.74	0.08	10.00	20.00	7.278	5.23844	7.24476	50.0
7.6766	87.0520	1.74	0.08	10.00	20.00	7.278	5.23591	7.24659	71.6
7.6966	87.0520	1.74	0.08	10.00	20.00	7.278	5.23338	7.24841	99.3
7.7166	87.0520	1.74	0.08	10.00	20.00	7.278	5.23085	7.25024	135.9
7.7366	87.0520	1.74	0.08	10.00	20.00	7.278	5.22832	7.25207	179.5
7.7566	87.0520	1.74	0.08	10.00	20.00	7.278	5.22578	7.25389	238.5
7.7766	87.0520	1.74	0.08	10.00	20.00	7.278	5.22325	7.25571	303.3
7.7966	87.0520	1.74	0.08	10.00	20.00	7.278	5.22072	7.25754	380.1
7.8166	87.0520	1.74	0.08	10.00	20.00	7.278	5.21818	7.25936	462.2
7.8366	87.0520	1.74	0.08	10.00	20.00	7.278	5.21565	7.26118	541.8
7.8566	87.0520	1.74	0.08	10.00	20.00	7.278	5.21312	7.26300	635.1
7.8766	87.0520	1.74	0.08	10.00	20.00	7.278	5.21058	7.26482	1192.3
7.8966	87.0520	1.74	0.08	10.00	20.00	7.278	5.20804	7.26664	1443.2
7.9166	87.0520	1.74	0.08	10.00	20.00	7.278	5.20551	7.26845	815.5
7.9366	87.0520	1.74	0.08	10.00	20.00	7.278	5.20297	7.27027	701.4
7.9566	87.0520	1.74	0.08	10.00	20.00	7.278	5.20043	7.27209	619.5
7.9766	87.0520	1.74	0.08	10.00	20.00	7.278	5.19789	7.27390	536.1
7.9966	87.0520	1.74	0.08	10.00	20.00	7.278	5.19535	7.27572	455.6
8.0166	87.0520	1.74	0.08	10.00	20.00	7.278	5.19281	7.27753	370.0
8.0366	87.0520	1.74	0.08	10.00	20.00	7.278	5.19027	7.27934	298.5
8.0566	87.0520	1.74	0.08	10.00	20.00	7.278	5.18773	7.28115	231.1
8.0766	87.0520	1.74	0.08	10.00	20.00	7.278	5.18519	7.28296	176.6
8.0966	87.0520	1.74	0.08	10.00	20.00	7.278	5.18265	7.28477	131.0
8.1166	87.0520	1.74	0.08	10.00	20.00	7.278	5.18010	7.28658	95.4
8.1366	87.0520	1.74	0.08	10.00	20.00	7.278	5.17756	7.28839	67.0
8.1566	87.0520	1.74	0.08	10.00	20.00	7.278	5.17502	7.29020	45.7
8.1766	87.0520	1.74	0.08	10.00	20.00	7.278	5.17247	7.29200	31.1
8.1966	87.0520	1.74	0.08	10.00	20.00	7.278	5.16992	7.29381	22.8
8.2166	87.0520	1.74	0.08	10.00	20.00	7.278	5.16738	7.29561	15.2
8.2366	87.0520	1.74	0.08	10.00	20.00	7.278	5.16483	7.29741	10.9
8.2566	87.0520	1.74	0.08	10.00	20.00	7.278	5.16228	7.29922	8.4
8.2766	87.0520	1.74	0.08	10.00	20.00	7.278	5.15974	7.30102	6.3
8.2966	87.0520	1.74	0.08	10.00	20.00	7.278	5.15719	7.30282	5.1
8.3166	87.0520	1.74	0.08	10.00	20.00	7.278	5.15464	7.30462	4.6
8.3366	87.0520	1.74	0.08	10.00	20.00	7.278	5.15209	7.30642	3.8
8.3566	87.0520	1.74	0.08	10.00	20.00	7.278	5.14954	7.30822	3.5
8.3766	87.0520	1.74	0.08	10.00	20.00	7.278	5.14698	7.31001	3.0
8.3966	87.0520	1.74	0.08	10.00	20.00	7.278	5.14443	7.31181	3.0
8.4166	87.0520	1.74	0.08	10.00	20.00	7.278	5.14188	7.31360	2.8
8.4366	87.0520	1.74	0.08	10.00	20.00	7.278	5.13933	7.31540	2.6
8.4566	87.0520	1.74	0.08	10.00	20.00	7.278	5.13677	7.31719	2.4
8.4766	87.0520	1.74	0.08	10.00	20.00	7.278	5.13422	7.31898	2.5
8.4966	87.0520	1.74	0.08	10.00	20.00	7.278	5.13166	7.32078	2.5
8.5166	87.0520	1.74	0.08	10.00	20.00	7.278	5.12911	7.32257	2.3
8.5366	87.0520	1.74	0.08	10.00	20.00	7.278	5.12655	7.32436	2.3
8.5566	87.0520	1.74	0.08	10.00	20.00	7.278	5.12399	7.32615	2.2
8.5766	87.0520	1.74	0.08	10.00	20.00	7.278	5.12144	7.32793	2.4
8.5966	87.0520	1.74	0.08	10.00	20.00	7.278	5.11888	7.32972	2.0
8.6166	87.0520	1.74	0.08	10.00	20.00	7.278	5.11632	7.33151	2.0
8.6366	87.0520	1.74	0.08	10.00	20.00	7.278	5.11376	7.33329	2.3
8.6566	87.0520	1.74	0.08	10.00	20.00	7.278	5.11120	7.33508	2.1
8.6766	87.0520	1.74	0.08	10.00	20.00	7.278	5.10864	7.33686	2.0
8.6966	87.0520	1.74	0.08	10.00	20.00	7.278	5.10608	7.33865	2.0
8.7166	87.0520	1.74	0.08	10.00	20.00	7.278	5.10352	7.34043	2.0
8.7366	87.0520	1.74	0.08	10.00	20.00	7.278	5.10095	7.34221	2.0
8.7566	87.0520	1.74	0.08	10.00	20.00	7.278	5.09839	7.34399	1.7
8.7766	87.0520	1.74	0.08	10.00	20.00	7.278	5.09583	7.34577	1.6
8.7966	87.0520	1.74	0.08	10.00	20.00	7.278	5.09326	7.34755	1.7
8.8166	87.0520	1.74	0.08	10.00	20.00	7.278	5.09070	7.34932	1.7
8.8366	87.0520	1.74	0.08	10.00	20.00	7.278	5.08813	7.35110	1.7
8.8566	87.0520	1.74	0.08	10.00	20.00	7.278	5.08557	7.35288	1.6
8.8369	86.6245	1.73	0.08	9.95	19.90	7.241	5.05793	7.31836	1.6