File: Data/Projection_SiGePeak/2.0deg-2.0deg-rsm-3h10mins_11352-as-grown_224_w-scans_w_066-066.dat
# filename: 2.0deg-2.0deg-rsm-3h10mins_11352-as-grown_224_w-scans.dat
# reflection: (004)
# type: Projection of 0 omega (rotated)  scans
# x-axis: omega
#
# Omega	2Theta	Phi  	Chi   	X    	Y    	Z    	q_para	q_perp	Intensity
# [deg]	[deg] 	[deg]	[deg] 	[mm] 	[mm] 	[mm] 	[nm-1]	[nm-1]	[counts/s]
6.8111	86.3924	1.28	0.08	-30.00	20.00	7.317	5.27147	7.15394	2.0
6.8311	86.3924	1.28	0.08	-30.00	20.00	7.317	5.26897	7.15578	0.0
6.8511	86.3924	1.28	0.08	-30.00	20.00	7.317	5.26647	7.15762	0.0
6.8711	86.3924	1.28	0.08	-30.00	20.00	7.317	5.26397	7.15946	0.0
6.8911	86.3924	1.28	0.08	-30.00	20.00	7.317	5.26147	7.16129	0.0
6.9111	86.3924	1.28	0.08	-30.00	20.00	7.317	5.25897	7.16313	2.0
6.9311	86.3924	1.28	0.08	-30.00	20.00	7.317	5.25647	7.16496	0.0
6.9511	86.3924	1.28	0.08	-30.00	20.00	7.317	5.25397	7.16680	2.0
6.9711	86.3924	1.28	0.08	-30.00	20.00	7.317	5.25147	7.16863	2.0
6.9911	86.3924	1.28	0.08	-30.00	20.00	7.317	5.24897	7.17047	4.0
7.0111	86.3924	1.28	0.08	-30.00	20.00	7.317	5.24646	7.17230	4.0
7.0311	86.3924	1.28	0.08	-30.00	20.00	7.317	5.24396	7.17413	0.0
7.0511	86.3924	1.28	0.08	-30.00	20.00	7.317	5.24146	7.17596	4.0
7.0711	86.3924	1.28	0.08	-30.00	20.00	7.317	5.23895	7.17779	2.0
7.0911	86.3924	1.28	0.08	-30.00	20.00	7.317	5.23644	7.17962	0.0
7.1111	86.3924	1.28	0.08	-30.00	20.00	7.317	5.23394	7.18144	2.0
7.1311	86.3924	1.28	0.08	-30.00	20.00	7.317	5.23143	7.18327	2.0
7.1511	86.3924	1.28	0.08	-30.00	20.00	7.317	5.22892	7.18510	0.0
7.1711	86.3924	1.28	0.08	-30.00	20.00	7.317	5.22642	7.18692	2.0
7.1911	86.3924	1.28	0.08	-30.00	20.00	7.317	5.22391	7.18874	4.0
7.2111	86.3924	1.28	0.08	-30.00	20.00	7.317	5.22140	7.19057	0.0
7.2311	86.3924	1.28	0.08	-30.00	20.00	7.317	5.21889	7.19239	2.0
7.2511	86.3924	1.28	0.08	-30.00	20.00	7.317	5.21638	7.19421	2.0
7.2711	86.3924	1.28	0.08	-30.00	20.00	7.317	5.21386	7.19603	4.0
7.2911	86.3924	1.28	0.08	-30.00	20.00	7.317	5.21135	7.19785	0.0
7.3111	86.3924	1.28	0.08	-30.00	20.00	7.317	5.20884	7.19967	0.0
7.3311	86.3924	1.28	0.08	-30.00	20.00	7.317	5.20633	7.20149	2.0
7.3511	86.3924	1.28	0.08	-30.00	20.00	7.317	5.20381	7.20330	2.0
7.3711	86.3924	1.28	0.08	-30.00	20.00	7.317	5.20130	7.20512	8.0
7.3911	86.3924	1.28	0.08	-30.00	20.00	7.317	5.19878	7.20694	14.0
7.4111	86.3924	1.28	0.08	-30.00	20.00	7.317	5.19626	7.20875	16.0
7.4311	86.3924	1.28	0.08	-30.00	20.00	7.317	5.19375	7.21056	2.0
7.4511	86.3924	1.28	0.08	-30.00	20.00	7.317	5.19123	7.21238	18.0
7.4711	86.3924	1.28	0.08	-30.00	20.00	7.317	5.18871	7.21419	30.0
7.4911	86.3924	1.28	0.08	-30.00	20.00	7.317	5.18619	7.21600	28.0
7.5111	86.3924	1.28	0.08	-30.00	20.00	7.317	5.18368	7.21781	128.0
7.5311	86.3924	1.28	0.08	-30.00	20.00	7.317	5.18116	7.21962	146.0
7.5511	86.3924	1.28	0.08	-30.00	20.00	7.317	5.17864	7.22142	376.0
7.5711	86.3924	1.28	0.08	-30.00	20.00	7.317	5.17611	7.22323	664.0
7.5911	86.3924	1.28	0.08	-30.00	20.00	7.317	5.17359	7.22504	1140.0
7.6111	86.3924	1.28	0.08	-30.00	20.00	7.317	5.17107	7.22684	2072.0
7.6311	86.3924	1.28	0.08	-30.00	20.00	7.317	5.16855	7.22865	3174.0
7.6511	86.3924	1.28	0.08	-30.00	20.00	7.317	5.16602	7.23045	4888.0
7.6711	86.3924	1.28	0.08	-30.00	20.00	7.317	5.16350	7.23226	7426.0
7.6911	86.3924	1.28	0.08	-30.00	20.00	7.317	5.16097	7.23406	10380.0
7.7111	86.3924	1.28	0.08	-30.00	20.00	7.317	5.15845	7.23586	14286.0
7.7311	86.3924	1.28	0.08	-30.00	20.00	7.317	5.15592	7.23766	17656.0
7.7511	86.3924	1.28	0.08	-30.00	20.00	7.317	5.15340	7.23946	20888.0
7.7711	86.3924	1.28	0.08	-30.00	20.00	7.317	5.15087	7.24126	23840.0
7.7911	86.3924	1.28	0.08	-30.00	20.00	7.317	5.14834	7.24305	25178.0
7.8111	86.3924	1.28	0.08	-30.00	20.00	7.317	5.14581	7.24485	25520.0
7.8311	86.3924	1.28	0.08	-30.00	20.00	7.317	5.14328	7.24665	23774.0
7.8511	86.3924	1.28	0.08	-30.00	20.00	7.317	5.14075	7.24844	21892.0
7.8711	86.3924	1.28	0.08	-30.00	20.00	7.317	5.13822	7.25024	19626.0
7.8911	86.3924	1.28	0.08	-30.00	20.00	7.317	5.13569	7.25203	16504.0
7.9111	86.3924	1.28	0.08	-30.00	20.00	7.317	5.13316	7.25382	13786.0
7.9311	86.3924	1.28	0.08	-30.00	20.00	7.317	5.13063	7.25561	10630.0
7.9511	86.3924	1.28	0.08	-30.00	20.00	7.317	5.12809	7.25740	7690.0
7.9711	86.3924	1.28	0.08	-30.00	20.00	7.317	5.12556	7.25919	5092.0
7.9911	86.3924	1.28	0.08	-30.00	20.00	7.317	5.12303	7.26098	3194.0
8.0111	86.3924	1.28	0.08	-30.00	20.00	7.317	5.12049	7.26277	1954.0
8.0311	86.3924	1.28	0.08	-30.00	20.00	7.317	5.11796	7.26456	1060.0
8.0511	86.3924	1.28	0.08	-30.00	20.00	7.317	5.11542	7.26634	626.0
8.0711	86.3924	1.28	0.08	-30.00	20.00	7.317	5.11288	7.26813	376.0
8.0911	86.3924	1.28	0.08	-30.00	20.00	7.317	5.11035	7.26991	196.0
8.1111	86.3924	1.28	0.08	-30.00	20.00	7.317	5.10781	7.27169	108.0
8.1311	86.3924	1.28	0.08	-30.00	20.00	7.317	5.10527	7.27348	46.0
8.1511	86.3924	1.28	0.08	-30.00	20.00	7.317	5.10273	7.27526	36.0
8.1711	86.3924	1.28	0.08	-30.00	20.00	7.317	5.10019	7.27704	18.0
8.1911	86.3924	1.28	0.08	-30.00	20.00	7.317	5.09765	7.27882	16.0
8.2111	86.3924	1.28	0.08	-30.00	20.00	7.317	5.09511	7.28060	8.0
8.2311	86.3924	1.28	0.08	-30.00	20.00	7.317	5.09257	7.28238	8.0
8.2511	86.3924	1.28	0.08	-30.00	20.00	7.317	5.09002	7.28415	0.0
8.2711	86.3924	1.28	0.08	-30.00	20.00	7.317	5.08748	7.28593	4.0
8.2911	86.3924	1.28	0.08	-30.00	20.00	7.317	5.08494	7.28771	2.0
8.3111	86.3924	1.28	0.08	-30.00	20.00	7.317	5.08239	7.28948	8.0
8.3311	86.3924	1.28	0.08	-30.00	20.00	7.317	5.07985	7.29125	2.0
8.3511	86.3924	1.28	0.08	-30.00	20.00	7.317	5.07730	7.29303	2.0
8.3711	86.3924	1.28	0.08	-30.00	20.00	7.317	5.07476	7.29480	2.0
8.3911	86.3924	1.28	0.08	-30.00	20.00	7.317	5.07221	7.29657	2.0
8.4111	86.3924	1.28	0.08	-30.00	20.00	7.317	5.06966	7.29834	2.0
8.4311	86.3924	1.28	0.08	-30.00	20.00	7.317	5.06712	7.30011	0.0
8.4511	86.3924	1.28	0.08	-30.00	20.00	7.317	5.06457	7.30188	2.0
8.4711	86.3924	1.28	0.08	-30.00	20.00	7.317	5.06202	7.30364	2.0
8.4911	86.3924	1.28	0.08	-30.00	20.00	7.317	5.05947	7.30541	4.0
8.5111	86.3924	1.28	0.08	-30.00	20.00	7.317	5.05692	7.30718	0.0
8.5311	86.3924	1.28	0.08	-30.00	20.00	7.317	5.05437	7.30894	2.0
8.5511	86.3924	1.28	0.08	-30.00	20.00	7.317	5.05182	7.31070	6.0
8.5711	86.3924	1.28	0.08	-30.00	20.00	7.317	5.04926	7.31247	2.0
8.5911	86.3924	1.28	0.08	-30.00	20.00	7.317	5.04671	7.31423	6.0
8.6111	86.3924	1.28	0.08	-30.00	20.00	7.317	5.04416	7.31599	0.0
8.6311	86.3924	1.28	0.08	-30.00	20.00	7.317	5.04160	7.31775	0.0
8.6511	86.3924	1.28	0.08	-30.00	20.00	7.317	5.03905	7.31951	2.0
8.6711	86.3924	1.28	0.08	-30.00	20.00	7.317	5.03649	7.32127	0.0
8.6911	86.3924	1.28	0.08	-30.00	20.00	7.317	5.03394	7.32303	2.0
8.7111	86.3924	1.28	0.08	-30.00	20.00	7.317	5.03138	7.32478	0.0
8.7311	86.3924	1.28	0.08	-30.00	20.00	7.317	5.02882	7.32654	0.0
8.7511	86.3924	1.28	0.08	-30.00	20.00	7.317	5.02627	7.32829	2.0
8.7711	86.3924	1.28	0.08	-30.00	20.00	7.317	5.02371	7.33005	0.0
8.7911	86.3924	1.28	0.08	-30.00	20.00	7.317	5.02115	7.33180	2.0
8.8111	86.3924	1.28	0.08	-30.00	20.00	7.317	5.01859	7.33355	2.0