File: Data/Projection_SiGePeak/2.0deg-2.0deg-rsm-3h10mins_11352-annealed_224_w-scans_w_065-065.dat
# filename: 2.0deg-2.0deg-rsm-3h10mins_11352-annealed_224_w-scans.dat
# reflection: (004)
# type: Projection of 0 omega (rotated)  scans
# x-axis: omega
#
# Omega	2Theta	Phi  	Chi   	X    	Y    	Z    	q_para	q_perp	Intensity
# [deg]	[deg] 	[deg]	[deg] 	[mm] 	[mm] 	[mm] 	[nm-1]	[nm-1]	[counts/s]
7.2075	86.3512	-1.19	0.12	0.00	17.51	7.290	5.21726	7.18936	0.0
7.2275	86.3512	-1.19	0.12	0.00	17.51	7.290	5.21475	7.19118	0.0
7.2475	86.3512	-1.19	0.12	0.00	17.51	7.290	5.21224	7.19300	2.0
7.2675	86.3512	-1.19	0.12	0.00	17.51	7.290	5.20973	7.19482	2.0
7.2875	86.3512	-1.19	0.12	0.00	17.51	7.290	5.20722	7.19664	0.0
7.3075	86.3512	-1.19	0.12	0.00	17.51	7.290	5.20471	7.19846	0.0
7.3275	86.3512	-1.19	0.12	0.00	17.51	7.290	5.20220	7.20027	0.0
7.3475	86.3512	-1.19	0.12	0.00	17.51	7.290	5.19968	7.20209	4.0
7.3675	86.3512	-1.19	0.12	0.00	17.51	7.290	5.19717	7.20390	2.0
7.3875	86.3512	-1.19	0.12	0.00	17.51	7.290	5.19465	7.20572	2.0
7.4075	86.3512	-1.19	0.12	0.00	17.51	7.290	5.19214	7.20753	0.0
7.4275	86.3512	-1.19	0.12	0.00	17.51	7.290	5.18962	7.20934	2.0
7.4475	86.3512	-1.19	0.12	0.00	17.51	7.290	5.18710	7.21115	4.0
7.4675	86.3512	-1.19	0.12	0.00	17.51	7.290	5.18459	7.21296	2.0
7.4875	86.3512	-1.19	0.12	0.00	17.51	7.290	5.18207	7.21477	2.0
7.5075	86.3512	-1.19	0.12	0.00	17.51	7.290	5.17955	7.21658	4.0
7.5275	86.3512	-1.19	0.12	0.00	17.51	7.290	5.17703	7.21839	0.0
7.5475	86.3512	-1.19	0.12	0.00	17.51	7.290	5.17451	7.22019	0.0
7.5675	86.3512	-1.19	0.12	0.00	17.51	7.290	5.17199	7.22200	0.0
7.5875	86.3512	-1.19	0.12	0.00	17.51	7.290	5.16947	7.22381	0.0
7.6075	86.3512	-1.19	0.12	0.00	17.51	7.290	5.16695	7.22561	2.0
7.6275	86.3512	-1.19	0.12	0.00	17.51	7.290	5.16442	7.22741	4.0
7.6475	86.3512	-1.19	0.12	0.00	17.51	7.290	5.16190	7.22922	2.0
7.6675	86.3512	-1.19	0.12	0.00	17.51	7.290	5.15938	7.23102	2.0
7.6875	86.3512	-1.19	0.12	0.00	17.51	7.290	5.15685	7.23282	4.0
7.7075	86.3512	-1.19	0.12	0.00	17.51	7.290	5.15433	7.23462	4.0
7.7275	86.3512	-1.19	0.12	0.00	17.51	7.290	5.15180	7.23642	6.0
7.7475	86.3512	-1.19	0.12	0.00	17.51	7.290	5.14928	7.23821	6.0
7.7675	86.3512	-1.19	0.12	0.00	17.51	7.290	5.14675	7.24001	2.0
7.7875	86.3512	-1.19	0.12	0.00	17.51	7.290	5.14422	7.24181	12.0
7.8075	86.3512	-1.19	0.12	0.00	17.51	7.290	5.14169	7.24360	12.0
7.8275	86.3512	-1.19	0.12	0.00	17.51	7.290	5.13916	7.24540	32.0
7.8475	86.3512	-1.19	0.12	0.00	17.51	7.290	5.13663	7.24719	36.0
7.8675	86.3512	-1.19	0.12	0.00	17.51	7.290	5.13410	7.24898	58.0
7.8875	86.3512	-1.19	0.12	0.00	17.51	7.290	5.13157	7.25077	96.0
7.9075	86.3512	-1.19	0.12	0.00	17.51	7.290	5.12904	7.25256	184.0
7.9275	86.3512	-1.19	0.12	0.00	17.51	7.290	5.12651	7.25435	318.0
7.9475	86.3512	-1.19	0.12	0.00	17.51	7.290	5.12398	7.25614	564.0
7.9675	86.3512	-1.19	0.12	0.00	17.51	7.290	5.12144	7.25793	832.0
7.9875	86.3512	-1.19	0.12	0.00	17.51	7.290	5.11891	7.25972	1352.0
8.0075	86.3512	-1.19	0.12	0.00	17.51	7.290	5.11638	7.26151	2128.0
8.0275	86.3512	-1.19	0.12	0.00	17.51	7.290	5.11384	7.26329	3452.0
8.0475	86.3512	-1.19	0.12	0.00	17.51	7.290	5.11131	7.26508	5318.0
8.0675	86.3512	-1.19	0.12	0.00	17.51	7.290	5.10877	7.26686	7724.0
8.0875	86.3512	-1.19	0.12	0.00	17.51	7.290	5.10623	7.26864	10284.0
8.1075	86.3512	-1.19	0.12	0.00	17.51	7.290	5.10369	7.27042	13752.0
8.1275	86.3512	-1.19	0.12	0.00	17.51	7.290	5.10116	7.27221	16788.0
8.1475	86.3512	-1.19	0.12	0.00	17.51	7.290	5.09862	7.27399	19762.0
8.1675	86.3512	-1.19	0.12	0.00	17.51	7.290	5.09608	7.27576	22078.0
8.1875	86.3512	-1.19	0.12	0.00	17.51	7.290	5.09354	7.27754	24594.0
8.2075	86.3512	-1.19	0.12	0.00	17.51	7.290	5.09100	7.27932	24646.0
8.2275	86.3512	-1.19	0.12	0.00	17.51	7.290	5.08846	7.28110	25160.0
8.2475	86.3512	-1.19	0.12	0.00	17.51	7.290	5.08591	7.28287	24044.0
8.2675	86.3512	-1.19	0.12	0.00	17.51	7.290	5.08337	7.28465	20958.0
8.2875	86.3512	-1.19	0.12	0.00	17.51	7.290	5.08083	7.28642	18246.0
8.3075	86.3512	-1.19	0.12	0.00	17.51	7.290	5.07829	7.28819	14956.0
8.3275	86.3512	-1.19	0.12	0.00	17.51	7.290	5.07574	7.28997	12008.0
8.3475	86.3512	-1.19	0.12	0.00	17.51	7.290	5.07320	7.29174	9268.0
8.3675	86.3512	-1.19	0.12	0.00	17.51	7.290	5.07065	7.29351	6626.0
8.3875	86.3512	-1.19	0.12	0.00	17.51	7.290	5.06810	7.29528	4634.0
8.4075	86.3512	-1.19	0.12	0.00	17.51	7.290	5.06556	7.29705	3134.0
8.4275	86.3512	-1.19	0.12	0.00	17.51	7.290	5.06301	7.29881	2206.0
8.4475	86.3512	-1.19	0.12	0.00	17.51	7.290	5.06046	7.30058	1362.0
8.4675	86.3512	-1.19	0.12	0.00	17.51	7.290	5.05791	7.30235	946.0
8.4875	86.3512	-1.19	0.12	0.00	17.51	7.290	5.05536	7.30411	520.0
8.5075	86.3512	-1.19	0.12	0.00	17.51	7.290	5.05281	7.30588	284.0
8.5275	86.3512	-1.19	0.12	0.00	17.51	7.290	5.05026	7.30764	174.0
8.5475	86.3512	-1.19	0.12	0.00	17.51	7.290	5.04771	7.30940	110.0
8.5675	86.3512	-1.19	0.12	0.00	17.51	7.290	5.04516	7.31116	32.0
8.5875	86.3512	-1.19	0.12	0.00	17.51	7.290	5.04261	7.31293	16.0
8.6075	86.3512	-1.19	0.12	0.00	17.51	7.290	5.04005	7.31468	8.0
8.6275	86.3512	-1.19	0.12	0.00	17.51	7.290	5.03750	7.31644	6.0
8.6475	86.3512	-1.19	0.12	0.00	17.51	7.290	5.03495	7.31820	4.0
8.6675	86.3512	-1.19	0.12	0.00	17.51	7.290	5.03239	7.31996	2.0
8.6875	86.3512	-1.19	0.12	0.00	17.51	7.290	5.02984	7.32171	10.0
8.7075	86.3512	-1.19	0.12	0.00	17.51	7.290	5.02728	7.32347	2.0
8.7275	86.3512	-1.19	0.12	0.00	17.51	7.290	5.02472	7.32522	0.0
8.7475	86.3512	-1.19	0.12	0.00	17.51	7.290	5.02217	7.32698	2.0
8.7675	86.3512	-1.19	0.12	0.00	17.51	7.290	5.01961	7.32873	0.0
8.7875	86.3512	-1.19	0.12	0.00	17.51	7.290	5.01705	7.33048	0.0
8.8075	86.3512	-1.19	0.12	0.00	17.51	7.290	5.01449	7.33223	2.0
8.8275	86.3512	-1.19	0.12	0.00	17.51	7.290	5.01193	7.33398	0.0
8.8475	86.3512	-1.19	0.12	0.00	17.51	7.290	5.00937	7.33573	0.0
8.8675	86.3512	-1.19	0.12	0.00	17.51	7.290	5.00681	7.33748	2.0
8.8875	86.3512	-1.19	0.12	0.00	17.51	7.290	5.00425	7.33923	2.0
8.9075	86.3512	-1.19	0.12	0.00	17.51	7.290	5.00169	7.34097	2.0
8.9275	86.3512	-1.19	0.12	0.00	17.51	7.290	4.99912	7.34272	0.0
8.9475	86.3512	-1.19	0.12	0.00	17.51	7.290	4.99656	7.34446	8.0
8.9675	86.3512	-1.19	0.12	0.00	17.51	7.290	4.99400	7.34621	0.0
8.9875	86.3512	-1.19	0.12	0.00	17.51	7.290	4.99143	7.34795	2.0
9.0075	86.3512	-1.19	0.12	0.00	17.51	7.290	4.98887	7.34969	0.0
9.0275	86.3512	-1.19	0.12	0.00	17.51	7.290	4.98630	7.35143	4.0
9.0475	86.3512	-1.19	0.12	0.00	17.51	7.290	4.98373	7.35317	2.0
9.0675	86.3512	-1.19	0.12	0.00	17.51	7.290	4.98117	7.35491	2.0
9.0875	86.3512	-1.19	0.12	0.00	17.51	7.290	4.97860	7.35665	2.0
9.1075	86.3512	-1.19	0.12	0.00	17.51	7.290	4.97603	7.35839	2.0
9.1275	86.3512	-1.19	0.12	0.00	17.51	7.290	4.97346	7.36012	0.0
9.1475	86.3512	-1.19	0.12	0.00	17.51	7.290	4.97089	7.36186	2.0
9.1675	86.3512	-1.19	0.12	0.00	17.51	7.290	4.96832	7.36360	0.0
9.1875	86.3512	-1.19	0.12	0.00	17.51	7.290	4.96575	7.36533	6.0
9.2075	86.3512	-1.19	0.12	0.00	17.51	7.290	4.96318	7.36706	4.0