File: Data/Projection_SiGePeak/2.0deg-2.0deg-rsm-3h10mins_11371-annealed_224_w-scans_w_065-065.dat
# filename: 2.0deg-2.0deg-rsm-3h10mins_11371-annealed_224_w-scans.dat
# reflection: (004)
# type: Projection of 0 omega (rotated)  scans
# x-axis: omega
#
# Omega	2Theta	Phi  	Chi   	X    	Y    	Z    	q_para	q_perp	Intensity
# [deg]	[deg] 	[deg]	[deg] 	[mm] 	[mm] 	[mm] 	[nm-1]	[nm-1]	[counts/s]
7.1277	86.3532	-0.92	0.32	0.00	17.53	7.303	5.22749	7.18213	6.0
7.1477	86.3532	-0.92	0.32	0.00	17.53	7.303	5.22499	7.18395	0.0
7.1677	86.3532	-0.92	0.32	0.00	17.53	7.303	5.22248	7.18578	0.0
7.1877	86.3532	-0.92	0.32	0.00	17.53	7.303	5.21997	7.18760	4.0
7.2077	86.3532	-0.92	0.32	0.00	17.53	7.303	5.21746	7.18942	0.0
7.2277	86.3532	-0.92	0.32	0.00	17.53	7.303	5.21495	7.19124	0.0
7.2477	86.3532	-0.92	0.32	0.00	17.53	7.303	5.21244	7.19306	2.0
7.2677	86.3532	-0.92	0.32	0.00	17.53	7.303	5.20993	7.19488	0.0
7.2877	86.3532	-0.92	0.32	0.00	17.53	7.303	5.20742	7.19670	0.0
7.3077	86.3532	-0.92	0.32	0.00	17.53	7.303	5.20491	7.19852	2.0
7.3277	86.3532	-0.92	0.32	0.00	17.53	7.303	5.20239	7.20033	4.0
7.3477	86.3532	-0.92	0.32	0.00	17.53	7.303	5.19988	7.20215	0.0
7.3677	86.3532	-0.92	0.32	0.00	17.53	7.303	5.19736	7.20396	6.0
7.3877	86.3532	-0.92	0.32	0.00	17.53	7.303	5.19485	7.20578	2.0
7.4077	86.3532	-0.92	0.32	0.00	17.53	7.303	5.19233	7.20759	2.0
7.4277	86.3532	-0.92	0.32	0.00	17.53	7.303	5.18982	7.20940	4.0
7.4477	86.3532	-0.92	0.32	0.00	17.53	7.303	5.18730	7.21121	0.0
7.4677	86.3532	-0.92	0.32	0.00	17.53	7.303	5.18478	7.21302	2.0
7.4877	86.3532	-0.92	0.32	0.00	17.53	7.303	5.18227	7.21483	0.0
7.5077	86.3532	-0.92	0.32	0.00	17.53	7.303	5.17975	7.21664	8.0
7.5277	86.3532	-0.92	0.32	0.00	17.53	7.303	5.17723	7.21845	14.0
7.5477	86.3532	-0.92	0.32	0.00	17.53	7.303	5.17471	7.22026	16.0
7.5677	86.3532	-0.92	0.32	0.00	17.53	7.303	5.17219	7.22206	8.0
7.5877	86.3532	-0.92	0.32	0.00	17.53	7.303	5.16966	7.22387	8.0
7.6077	86.3532	-0.92	0.32	0.00	17.53	7.303	5.16714	7.22567	4.0
7.6277	86.3532	-0.92	0.32	0.00	17.53	7.303	5.16462	7.22748	14.0
7.6477	86.3532	-0.92	0.32	0.00	17.53	7.303	5.16210	7.22928	16.0
7.6677	86.3532	-0.92	0.32	0.00	17.53	7.303	5.15957	7.23108	52.0
7.6877	86.3532	-0.92	0.32	0.00	17.53	7.303	5.15705	7.23288	72.0
7.7077	86.3532	-0.92	0.32	0.00	17.53	7.303	5.15452	7.23468	142.0
7.7277	86.3532	-0.92	0.32	0.00	17.53	7.303	5.15200	7.23648	240.0
7.7477	86.3532	-0.92	0.32	0.00	17.53	7.303	5.14947	7.23828	376.0
7.7677	86.3532	-0.92	0.32	0.00	17.53	7.303	5.14694	7.24007	608.0
7.7877	86.3532	-0.92	0.32	0.00	17.53	7.303	5.14442	7.24187	1036.0
7.8077	86.3532	-0.92	0.32	0.00	17.53	7.303	5.14189	7.24366	1480.0
7.8277	86.3532	-0.92	0.32	0.00	17.53	7.303	5.13936	7.24546	2230.0
7.8477	86.3532	-0.92	0.32	0.00	17.53	7.303	5.13683	7.24725	3106.0
7.8677	86.3532	-0.92	0.32	0.00	17.53	7.303	5.13430	7.24905	4222.0
7.8877	86.3532	-0.92	0.32	0.00	17.53	7.303	5.13177	7.25084	5822.0
7.9077	86.3532	-0.92	0.32	0.00	17.53	7.303	5.12924	7.25263	7566.0
7.9277	86.3532	-0.92	0.32	0.00	17.53	7.303	5.12671	7.25442	9350.0
7.9477	86.3532	-0.92	0.32	0.00	17.53	7.303	5.12417	7.25621	11698.0
7.9677	86.3532	-0.92	0.32	0.00	17.53	7.303	5.12164	7.25800	14172.0
7.9877	86.3532	-0.92	0.32	0.00	17.53	7.303	5.11911	7.25978	16372.0
8.0077	86.3532	-0.92	0.32	0.00	17.53	7.303	5.11657	7.26157	18416.0
8.0277	86.3532	-0.92	0.32	0.00	17.53	7.303	5.11404	7.26335	19888.0
8.0477	86.3532	-0.92	0.32	0.00	17.53	7.303	5.11150	7.26514	20986.0
8.0677	86.3532	-0.92	0.32	0.00	17.53	7.303	5.10897	7.26692	21816.0
8.0877	86.3532	-0.92	0.32	0.00	17.53	7.303	5.10643	7.26871	21256.0
8.1077	86.3532	-0.92	0.32	0.00	17.53	7.303	5.10389	7.27049	20346.0
8.1277	86.3532	-0.92	0.32	0.00	17.53	7.303	5.10135	7.27227	18314.0
8.1477	86.3532	-0.92	0.32	0.00	17.53	7.303	5.09881	7.27405	16760.0
8.1677	86.3532	-0.92	0.32	0.00	17.53	7.303	5.09627	7.27583	14906.0
8.1877	86.3532	-0.92	0.32	0.00	17.53	7.303	5.09373	7.27761	12484.0
8.2077	86.3532	-0.92	0.32	0.00	17.53	7.303	5.09119	7.27938	10486.0
8.2277	86.3532	-0.92	0.32	0.00	17.53	7.303	5.08865	7.28116	8558.0
8.2477	86.3532	-0.92	0.32	0.00	17.53	7.303	5.08611	7.28294	6546.0
8.2677	86.3532	-0.92	0.32	0.00	17.53	7.303	5.08357	7.28471	5270.0
8.2877	86.3532	-0.92	0.32	0.00	17.53	7.303	5.08103	7.28649	3936.0
8.3077	86.3532	-0.92	0.32	0.00	17.53	7.303	5.07848	7.28826	2878.0
8.3277	86.3532	-0.92	0.32	0.00	17.53	7.303	5.07594	7.29003	2070.0
8.3477	86.3532	-0.92	0.32	0.00	17.53	7.303	5.07339	7.29180	1322.0
8.3677	86.3532	-0.92	0.32	0.00	17.53	7.303	5.07085	7.29357	918.0
8.3877	86.3532	-0.92	0.32	0.00	17.53	7.303	5.06830	7.29534	636.0
8.4077	86.3532	-0.92	0.32	0.00	17.53	7.303	5.06575	7.29711	456.0
8.4277	86.3532	-0.92	0.32	0.00	17.53	7.303	5.06321	7.29888	282.0
8.4477	86.3532	-0.92	0.32	0.00	17.53	7.303	5.06066	7.30065	192.0
8.4677	86.3532	-0.92	0.32	0.00	17.53	7.303	5.05811	7.30241	80.0
8.4877	86.3532	-0.92	0.32	0.00	17.53	7.303	5.05556	7.30418	64.0
8.5077	86.3532	-0.92	0.32	0.00	17.53	7.303	5.05301	7.30594	26.0
8.5277	86.3532	-0.92	0.32	0.00	17.53	7.303	5.05046	7.30771	20.0
8.5477	86.3532	-0.92	0.32	0.00	17.53	7.303	5.04791	7.30947	4.0
8.5677	86.3532	-0.92	0.32	0.00	17.53	7.303	5.04536	7.31123	0.0
8.5877	86.3532	-0.92	0.32	0.00	17.53	7.303	5.04280	7.31299	4.0
8.6077	86.3532	-0.92	0.32	0.00	17.53	7.303	5.04025	7.31475	2.0
8.6277	86.3532	-0.92	0.32	0.00	17.53	7.303	5.03770	7.31651	0.0
8.6477	86.3532	-0.92	0.32	0.00	17.53	7.303	5.03514	7.31827	2.0
8.6677	86.3532	-0.92	0.32	0.00	17.53	7.303	5.03259	7.32002	2.0
8.6877	86.3532	-0.92	0.32	0.00	17.53	7.303	5.03003	7.32178	4.0
8.7077	86.3532	-0.92	0.32	0.00	17.53	7.303	5.02748	7.32354	4.0
8.7277	86.3532	-0.92	0.32	0.00	17.53	7.303	5.02492	7.32529	0.0
8.7477	86.3532	-0.92	0.32	0.00	17.53	7.303	5.02236	7.32704	2.0
8.7677	86.3532	-0.92	0.32	0.00	17.53	7.303	5.01980	7.32880	2.0
8.7877	86.3532	-0.92	0.32	0.00	17.53	7.303	5.01725	7.33055	2.0
8.8077	86.3532	-0.92	0.32	0.00	17.53	7.303	5.01469	7.33230	2.0
8.8277	86.3532	-0.92	0.32	0.00	17.53	7.303	5.01213	7.33405	2.0
8.8477	86.3532	-0.92	0.32	0.00	17.53	7.303	5.00957	7.33580	2.0
8.8677	86.3532	-0.92	0.32	0.00	17.53	7.303	5.00701	7.33755	0.0
8.8877	86.3532	-0.92	0.32	0.00	17.53	7.303	5.00444	7.33929	2.0
8.9077	86.3532	-0.92	0.32	0.00	17.53	7.303	5.00188	7.34104	0.0
8.9277	86.3532	-0.92	0.32	0.00	17.53	7.303	4.99932	7.34279	2.0
8.9477	86.3532	-0.92	0.32	0.00	17.53	7.303	4.99676	7.34453	4.0
8.9677	86.3532	-0.92	0.32	0.00	17.53	7.303	4.99419	7.34627	0.0
8.9877	86.3532	-0.92	0.32	0.00	17.53	7.303	4.99163	7.34802	0.0
9.0077	86.3532	-0.92	0.32	0.00	17.53	7.303	4.98906	7.34976	4.0
9.0277	86.3532	-0.92	0.32	0.00	17.53	7.303	4.98650	7.35150	4.0
9.0477	86.3532	-0.92	0.32	0.00	17.53	7.303	4.98393	7.35324	2.0
9.0677	86.3532	-0.92	0.32	0.00	17.53	7.303	4.98136	7.35498	4.0
9.0877	86.3532	-0.92	0.32	0.00	17.53	7.303	4.97879	7.35672	6.0
9.1077	86.3532	-0.92	0.32	0.00	17.53	7.303	4.97623	7.35846	0.0
9.1277	86.3532	-0.92	0.32	0.00	17.53	7.303	4.97366	7.36019	2.0