File: Data/113xx/Omega/1.5deg-2.0deg-rsm-2h30mins_11352-as-grown_004_w-scans.dat
# filename: 1.5deg-2.0deg-rsm-2h30mins_11352-as-grown_004.dat
# reflection: (004)
# type: rotated into a series of omega scans
# x-axis: Omega_2Theta
#
# Omega	2Theta	Phi  	Chi   	X    	Y    	Z    	q_para	q_perp	Intensity
# [deg]	[deg] 	[deg]	[deg] 	[mm] 	[mm] 	[mm] 	[nm-1]	[nm-1]	[counts/s]
32.2032	66.6696	1.28	-0.03	-30.00	20.00	7.317	0.14089	7.13276	0.0
32.2232	66.6696	1.28	-0.03	-30.00	20.00	7.317	0.13840	7.13281	2.0
32.2432	66.6696	1.28	-0.03	-30.00	20.00	7.317	0.13591	7.13286	0.0
32.2632	66.6696	1.28	-0.03	-30.00	20.00	7.317	0.13342	7.13291	0.0
32.2832	66.6696	1.28	-0.03	-30.00	20.00	7.317	0.13093	7.13295	0.0
32.3032	66.6696	1.28	-0.03	-30.00	20.00	7.317	0.12844	7.13300	2.0
32.3232	66.6696	1.28	-0.03	-30.00	20.00	7.317	0.12595	7.13304	0.0
32.3432	66.6696	1.28	-0.03	-30.00	20.00	7.317	0.12346	7.13309	0.0
32.3632	66.6696	1.28	-0.03	-30.00	20.00	7.317	0.12097	7.13313	0.0
32.3832	66.6696	1.28	-0.03	-30.00	20.00	7.317	0.11848	7.13317	0.0
32.4032	66.6696	1.28	-0.03	-30.00	20.00	7.317	0.11599	7.13321	0.0
32.4232	66.6696	1.28	-0.03	-30.00	20.00	7.317	0.11350	7.13325	0.0
32.4432	66.6696	1.28	-0.03	-30.00	20.00	7.317	0.11101	7.13329	0.0
32.4632	66.6696	1.28	-0.03	-30.00	20.00	7.317	0.10852	7.13333	0.0
32.4832	66.6696	1.28	-0.03	-30.00	20.00	7.317	0.10603	7.13337	0.0
32.5032	66.6696	1.28	-0.03	-30.00	20.00	7.317	0.10354	7.13340	4.0
32.5232	66.6696	1.28	-0.03	-30.00	20.00	7.317	0.10105	7.13344	2.0
32.5432	66.6696	1.28	-0.03	-30.00	20.00	7.317	0.09856	7.13347	2.0
32.5632	66.6696	1.28	-0.03	-30.00	20.00	7.317	0.09607	7.13351	0.0
32.5832	66.6696	1.28	-0.03	-30.00	20.00	7.317	0.09358	7.13354	0.0
32.6032	66.6696	1.28	-0.03	-30.00	20.00	7.317	0.09109	7.13357	4.0
32.6232	66.6696	1.28	-0.03	-30.00	20.00	7.317	0.08860	7.13360	0.0
32.6432	66.6696	1.28	-0.03	-30.00	20.00	7.317	0.08611	7.13363	0.0
32.6632	66.6696	1.28	-0.03	-30.00	20.00	7.317	0.08362	7.13366	0.0
32.6832	66.6696	1.28	-0.03	-30.00	20.00	7.317	0.08113	7.13369	0.0
32.7032	66.6696	1.28	-0.03	-30.00	20.00	7.317	0.07864	7.13372	0.0
32.7232	66.6696	1.28	-0.03	-30.00	20.00	7.317	0.07615	7.13375	0.0
32.7432	66.6696	1.28	-0.03	-30.00	20.00	7.317	0.07366	7.13377	0.0
32.7632	66.6696	1.28	-0.03	-30.00	20.00	7.317	0.07117	7.13380	0.0
32.7832	66.6696	1.28	-0.03	-30.00	20.00	7.317	0.06868	7.13382	0.0
32.8032	66.6696	1.28	-0.03	-30.00	20.00	7.317	0.06619	7.13385	0.0
32.8232	66.6696	1.28	-0.03	-30.00	20.00	7.317	0.06370	7.13387	2.0
32.8432	66.6696	1.28	-0.03	-30.00	20.00	7.317	0.06121	7.13389	0.0
32.8632	66.6696	1.28	-0.03	-30.00	20.00	7.317	0.05872	7.13391	0.0
32.8832	66.6696	1.28	-0.03	-30.00	20.00	7.317	0.05623	7.13393	0.0
32.9032	66.6696	1.28	-0.03	-30.00	20.00	7.317	0.05374	7.13395	2.0
32.9232	66.6696	1.28	-0.03	-30.00	20.00	7.317	0.05125	7.13397	0.0
32.9432	66.6696	1.28	-0.03	-30.00	20.00	7.317	0.04876	7.13399	2.0
32.9632	66.6696	1.28	-0.03	-30.00	20.00	7.317	0.04627	7.13400	2.0
32.9832	66.6696	1.28	-0.03	-30.00	20.00	7.317	0.04378	7.13402	0.0
33.0032	66.6696	1.28	-0.03	-30.00	20.00	7.317	0.04129	7.13404	0.0
33.0232	66.6696	1.28	-0.03	-30.00	20.00	7.317	0.03880	7.13405	2.0
33.0432	66.6696	1.28	-0.03	-30.00	20.00	7.317	0.03631	7.13406	0.0
33.0632	66.6696	1.28	-0.03	-30.00	20.00	7.317	0.03382	7.13407	2.0
33.0832	66.6696	1.28	-0.03	-30.00	20.00	7.317	0.03133	7.13409	0.0
33.1032	66.6696	1.28	-0.03	-30.00	20.00	7.317	0.02884	7.13410	4.0
33.1232	66.6696	1.28	-0.03	-30.00	20.00	7.317	0.02635	7.13411	0.0
33.1432	66.6696	1.28	-0.03	-30.00	20.00	7.317	0.02386	7.13411	2.0
33.1632	66.6696	1.28	-0.03	-30.00	20.00	7.317	0.02137	7.13412	0.0
33.1832	66.6696	1.28	-0.03	-30.00	20.00	7.317	0.01888	7.13413	0.0
33.2032	66.6696	1.28	-0.03	-30.00	20.00	7.317	0.01639	7.13414	0.0
33.2232	66.6696	1.28	-0.03	-30.00	20.00	7.317	0.01390	7.13414	2.0
33.2432	66.6696	1.28	-0.03	-30.00	20.00	7.317	0.01141	7.13415	2.0
33.2632	66.6696	1.28	-0.03	-30.00	20.00	7.317	0.00892	7.13415	0.0
33.2832	66.6696	1.28	-0.03	-30.00	20.00	7.317	0.00642	7.13415	6.0
33.3032	66.6696	1.28	-0.03	-30.00	20.00	7.317	0.00393	7.13415	2.0
33.3232	66.6696	1.28	-0.03	-30.00	20.00	7.317	0.00144	7.13415	0.0
33.3432	66.6696	1.28	-0.03	-30.00	20.00	7.317	-0.00105	7.13415	0.0
33.3632	66.6696	1.28	-0.03	-30.00	20.00	7.317	-0.00354	7.13415	2.0
33.3832	66.6696	1.28	-0.03	-30.00	20.00	7.317	-0.00603	7.13415	2.0
33.4032	66.6696	1.28	-0.03	-30.00	20.00	7.317	-0.00852	7.13415	0.0
33.4232	66.6696	1.28	-0.03	-30.00	20.00	7.317	-0.01101	7.13415	2.0
33.4432	66.6696	1.28	-0.03	-30.00	20.00	7.317	-0.01350	7.13414	0.0
33.4632	66.6696	1.28	-0.03	-30.00	20.00	7.317	-0.01599	7.13414	0.0
33.4832	66.6696	1.28	-0.03	-30.00	20.00	7.317	-0.01848	7.13413	0.0
33.5032	66.6696	1.28	-0.03	-30.00	20.00	7.317	-0.02097	7.13412	0.0
33.5232	66.6696	1.28	-0.03	-30.00	20.00	7.317	-0.02346	7.13412	0.0
33.5432	66.6696	1.28	-0.03	-30.00	20.00	7.317	-0.02595	7.13411	0.0
33.5632	66.6696	1.28	-0.03	-30.00	20.00	7.317	-0.02844	7.13410	0.0
33.5832	66.6696	1.28	-0.03	-30.00	20.00	7.317	-0.03093	7.13409	0.0
33.6032	66.6696	1.28	-0.03	-30.00	20.00	7.317	-0.03342	7.13408	2.0
33.6232	66.6696	1.28	-0.03	-30.00	20.00	7.317	-0.03591	7.13406	0.0
33.6432	66.6696	1.28	-0.03	-30.00	20.00	7.317	-0.03840	7.13405	0.0
33.6632	66.6696	1.28	-0.03	-30.00	20.00	7.317	-0.04089	7.13404	0.0
33.6832	66.6696	1.28	-0.03	-30.00	20.00	7.317	-0.04338	7.13402	0.0
33.7032	66.6696	1.28	-0.03	-30.00	20.00	7.317	-0.04587	7.13401	0.0
33.7232	66.6696	1.28	-0.03	-30.00	20.00	7.317	-0.04836	7.13399	4.0
33.7432	66.6696	1.28	-0.03	-30.00	20.00	7.317	-0.05085	7.13397	0.0
33.7632	66.6696	1.28	-0.03	-30.00	20.00	7.317	-0.05334	7.13396	2.0
33.7832	66.6696	1.28	-0.03	-30.00	20.00	7.317	-0.05583	7.13394	0.0
33.8032	66.6696	1.28	-0.03	-30.00	20.00	7.317	-0.05832	7.13392	2.0
33.8232	66.6696	1.28	-0.03	-30.00	20.00	7.317	-0.06081	7.13390	0.0
33.8432	66.6696	1.28	-0.03	-30.00	20.00	7.317	-0.06330	7.13387	0.0
33.8632	66.6696	1.28	-0.03	-30.00	20.00	7.317	-0.06579	7.13385	4.0
33.8832	66.6696	1.28	-0.03	-30.00	20.00	7.317	-0.06828	7.13383	0.0
33.9032	66.6696	1.28	-0.03	-30.00	20.00	7.317	-0.07077	7.13380	2.0
33.9232	66.6696	1.28	-0.03	-30.00	20.00	7.317	-0.07326	7.13378	2.0
33.9432	66.6696	1.28	-0.03	-30.00	20.00	7.317	-0.07575	7.13375	0.0
33.9632	66.6696	1.28	-0.03	-30.00	20.00	7.317	-0.07824	7.13373	4.0
33.9832	66.6696	1.28	-0.03	-30.00	20.00	7.317	-0.08073	7.13370	0.0
34.0032	66.6696	1.28	-0.03	-30.00	20.00	7.317	-0.08322	7.13367	0.0
34.0232	66.6696	1.28	-0.03	-30.00	20.00	7.317	-0.08571	7.13364	2.0
34.0432	66.6696	1.28	-0.03	-30.00	20.00	7.317	-0.08820	7.13361	0.0
34.0632	66.6696	1.28	-0.03	-30.00	20.00	7.317	-0.09069	7.13358	2.0
34.0832	66.6696	1.28	-0.03	-30.00	20.00	7.317	-0.09318	7.13355	2.0
34.1032	66.6696	1.28	-0.03	-30.00	20.00	7.317	-0.09567	7.13351	4.0
34.1232	66.6696	1.28	-0.03	-30.00	20.00	7.317	-0.09816	7.13348	2.0
34.1432	66.6696	1.28	-0.03	-30.00	20.00	7.317	-0.10065	7.13344	2.0
34.1632	66.6696	1.28	-0.03	-30.00	20.00	7.317	-0.10314	7.13341	2.0
34.1832	66.6696	1.28	-0.03	-30.00	20.00	7.317	-0.10563	7.13337	0.0
34.2032	66.6696	1.28	-0.03	-30.00	20.00	7.317	-0.10812	7.13334	0.0

32.2132	66.6896	1.28	-0.03	-30.00	20.00	7.317	0.14093	7.13466	0.0
32.2332	66.6896	1.28	-0.03	-30.00	20.00	7.317	0.13844	7.13470	2.0
32.2532	66.6896	1.28	-0.03	-30.00	20.00	7.317	0.13595	7.13475	2.0
32.2732	66.6896	1.28	-0.03	-30.00	20.00	7.317	0.13346	7.13480	2.0
32.2932	66.6896	1.28	-0.03	-30.00	20.00	7.317	0.13097	7.13485	4.0
32.3132	66.6896	1.28	-0.03	-30.00	20.00	7.317	0.12848	7.13489	2.0
32.3332	66.6896	1.28	-0.03	-30.00	20.00	7.317	0.12599	7.13494	0.0
32.3532	66.6896	1.28	-0.03	-30.00	20.00	7.317	0.12350	7.13498	0.0
32.3732	66.6896	1.28	-0.03	-30.00	20.00	7.317	0.12100	7.13502	0.0
32.3932	66.6896	1.28	-0.03	-30.00	20.00	7.317	0.11851	7.13506	0.0
32.4132	66.6896	1.28	-0.03	-30.00	20.00	7.317	0.11602	7.13510	0.0
32.4332	66.6896	1.28	-0.03	-30.00	20.00	7.317	0.11353	7.13514	0.0
32.4532	66.6896	1.28	-0.03	-30.00	20.00	7.317	0.11104	7.13518	0.0
32.4732	66.6896	1.28	-0.03	-30.00	20.00	7.317	0.10855	7.13522	0.0
32.4932	66.6896	1.28	-0.03	-30.00	20.00	7.317	0.10606	7.13526	0.0
32.5132	66.6896	1.28	-0.03	-30.00	20.00	7.317	0.10357	7.13530	2.0
32.5332	66.6896	1.28	-0.03	-30.00	20.00	7.317	0.10108	7.13533	0.0
32.5532	66.6896	1.28	-0.03	-30.00	20.00	7.317	0.09859	7.13537	0.0
32.5732	66.6896	1.28	-0.03	-30.00	20.00	7.317	0.09610	7.13540	2.0
32.5932	66.6896	1.28	-0.03	-30.00	20.00	7.317	0.09361	7.13543	0.0
32.6132	66.6896	1.28	-0.03	-30.00	20.00	7.317	0.09112	7.13547	0.0
32.6332	66.6896	1.28	-0.03	-30.00	20.00	7.317	0.08863	7.13550	4.0
32.6532	66.6896	1.28	-0.03	-30.00	20.00	7.317	0.08613	7.13553	2.0
32.6732	66.6896	1.28	-0.03	-30.00	20.00	7.317	0.08364	7.13556	0.0
32.6932	66.6896	1.28	-0.03	-30.00	20.00	7.317	0.08115	7.13559	2.0
32.7132	66.6896	1.28	-0.03	-30.00	20.00	7.317	0.07866	7.13561	0.0
32.7332	66.6896	1.28	-0.03	-30.00	20.00	7.317	0.07617	7.13564	0.0
32.7532	66.6896	1.28	-0.03	-30.00	20.00	7.317	0.07368	7.13567	4.0
32.7732	66.6896	1.28	-0.03	-30.00	20.00	7.317	0.07119	7.13569	2.0
32.7932	66.6896	1.28	-0.03	-30.00	20.00	7.317	0.06870	7.13572	0.0
32.8132	66.6896	1.28	-0.03	-30.00	20.00	7.317	0.06621	7.13574	0.0
32.8332	66.6896	1.28	-0.03	-30.00	20.00	7.317	0.06372	7.13576	0.0
32.8532	66.6896	1.28	-0.03	-30.00	20.00	7.317	0.06123	7.13578	0.0
32.8732	66.6896	1.28	-0.03	-30.00	20.00	7.317	0.05874	7.13581	0.0
32.8932	66.6896	1.28	-0.03	-30.00	20.00	7.317	0.05625	7.13583	0.0
32.9132	66.6896	1.28	-0.03	-30.00	20.00	7.317	0.05375	7.13584	0.0
32.9332	66.6896	1.28	-0.03	-30.00	20.00	7.317	0.05126	7.13586	0.0
32.9532	66.6896	1.28	-0.03	-30.00	20.00	7.317	0.04877	7.13588	0.0
32.9732	66.6896	1.28	-0.03	-30.00	20.00	7.317	0.04628	7.13590	0.0
32.9932	66.6896	1.28	-0.03	-30.00	20.00	7.317	0.04379	7.13591	0.0
33.0132	66.6896	1.28	-0.03	-30.00	20.00	7.317	0.04130	7.13593	2.0
33.0332	66.6896	1.28	-0.03	-30.00	20.00	7.317	0.03881	7.13594	0.0
33.0532	66.6896	1.28	-0.03	-30.00	20.00	7.317	0.03632	7.13596	2.0
33.0732	66.6896	1.28	-0.03	-30.00	20.00	7.317	0.03383	7.13597	0.0
33.0932	66.6896	1.28	-0.03	-30.00	20.00	7.317	0.03134	7.13598	0.0
33.1132	66.6896	1.28	-0.03	-30.00	20.00	7.317	0.02885	7.13599	2.0
33.1332	66.6896	1.28	-0.03	-30.00	20.00	7.317	0.02635	7.13600	0.0
33.1532	66.6896	1.28	-0.03	-30.00	20.00	7.317	0.02386	7.13601	2.0
33.1732	66.6896	1.28	-0.03	-30.00	20.00	7.317	0.02137	7.13602	2.0
33.1932	66.6896	1.28	-0.03	-30.00	20.00	7.317	0.01888	7.13602	2.0
33.2132	66.6896	1.28	-0.03	-30.00	20.00	7.317	0.01639	7.13603	0.0
33.2332	66.6896	1.28	-0.03	-30.00	20.00	7.317	0.01390	7.13603	0.0
33.2532	66.6896	1.28	-0.03	-30.00	20.00	7.317	0.01141	7.13604	2.0
33.2732	66.6896	1.28	-0.03	-30.00	20.00	7.317	0.00892	7.13604	2.0
33.2932	66.6896	1.28	-0.03	-30.00	20.00	7.317	0.00643	7.13604	0.0
33.3132	66.6896	1.28	-0.03	-30.00	20.00	7.317	0.00394	7.13605	0.0
33.3332	66.6896	1.28	-0.03	-30.00	20.00	7.317	0.00144	7.13605	0.0
33.3532	66.6896	1.28	-0.03	-30.00	20.00	7.317	-0.00105	7.13605	0.0
33.3732	66.6896	1.28	-0.03	-30.00	20.00	7.317	-0.00354	7.13605	0.0
33.3932	66.6896	1.28	-0.03	-30.00	20.00	7.317	-0.00603	7.13604	0.0
33.4132	66.6896	1.28	-0.03	-30.00	20.00	7.317	-0.00852	7.13604	2.0
33.4332	66.6896	1.28	-0.03	-30.00	20.00	7.317	-0.01101	7.13604	0.0
33.4532	66.6896	1.28	-0.03	-30.00	20.00	7.317	-0.01350	7.13603	2.0
33.4732	66.6896	1.28	-0.03	-30.00	20.00	7.317	-0.01599	7.13603	2.0
33.4932	66.6896	1.28	-0.03	-30.00	20.00	7.317	-0.01848	7.13602	0.0
33.5132	66.6896	1.28	-0.03	-30.00	20.00	7.317	-0.02097	7.13602	4.0
33.5332	66.6896	1.28	-0.03	-30.00	20.00	7.317	-0.02346	7.13601	4.0
33.5532	66.6896	1.28	-0.03	-30.00	20.00	7.317	-0.02596	7.13600	2.0
33.5732	66.6896	1.28	-0.03	-30.00	20.00	7.317	-0.02845	7.13599	0.0
33.5932	66.6896	1.28	-0.03	-30.00	20.00	7.317	-0.03094	7.13598	4.0
33.6132	66.6896	1.28	-0.03	-30.00	20.00	7.317	-0.03343	7.13597	2.0
33.6332	66.6896	1.28	-0.03	-30.00	20.00	7.317	-0.03592	7.13596	0.0
33.6532	66.6896	1.28	-0.03	-30.00	20.00	7.317	-0.03841	7.13594	2.0
33.6732	66.6896	1.28	-0.03	-30.00	20.00	7.317	-0.04090	7.13593	0.0
33.6932	66.6896	1.28	-0.03	-30.00	20.00	7.317	-0.04339	7.13592	2.0
33.7132	66.6896	1.28	-0.03	-30.00	20.00	7.317	-0.04588	7.13590	2.0
33.7332	66.6896	1.28	-0.03	-30.00	20.00	7.317	-0.04837	7.13588	0.0
33.7532	66.6896	1.28	-0.03	-30.00	20.00	7.317	-0.05086	7.13587	0.0
33.7732	66.6896	1.28	-0.03	-30.00	20.00	7.317	-0.05336	7.13585	0.0
33.7932	66.6896	1.28	-0.03	-30.00	20.00	7.317	-0.05585	7.13583	0.0
33.8132	66.6896	1.28	-0.03	-30.00	20.00	7.317	-0.05834	7.13581	4.0
33.8332	66.6896	1.28	-0.03	-30.00	20.00	7.317	-0.06083	7.13579	2.0
33.8532	66.6896	1.28	-0.03	-30.00	20.00	7.317	-0.06332	7.13577	2.0
33.8732	66.6896	1.28	-0.03	-30.00	20.00	7.317	-0.06581	7.13574	4.0
33.8932	66.6896	1.28	-0.03	-30.00	20.00	7.317	-0.06830	7.13572	0.0
33.9132	66.6896	1.28	-0.03	-30.00	20.00	7.317	-0.07079	7.13570	2.0
33.9332	66.6896	1.28	-0.03	-30.00	20.00	7.317	-0.07328	7.13567	2.0
33.9532	66.6896	1.28	-0.03	-30.00	20.00	7.317	-0.07577	7.13565	0.0
33.9732	66.6896	1.28	-0.03	-30.00	20.00	7.317	-0.07826	7.13562	0.0
33.9932	66.6896	1.28	-0.03	-30.00	20.00	7.317	-0.08075	7.13559	2.0
34.0132	66.6896	1.28	-0.03	-30.00	20.00	7.317	-0.08325	7.13556	0.0
34.0332	66.6896	1.28	-0.03	-30.00	20.00	7.317	-0.08574	7.13553	0.0
34.0532	66.6896	1.28	-0.03	-30.00	20.00	7.317	-0.08823	7.13550	2.0
34.0732	66.6896	1.28	-0.03	-30.00	20.00	7.317	-0.09072	7.13547	0.0
34.0932	66.6896	1.28	-0.03	-30.00	20.00	7.317	-0.09321	7.13544	2.0
34.1132	66.6896	1.28	-0.03	-30.00	20.00	7.317	-0.09570	7.13541	0.0
34.1332	66.6896	1.28	-0.03	-30.00	20.00	7.317	-0.09819	7.13537	0.0
34.1532	66.6896	1.28	-0.03	-30.00	20.00	7.317	-0.10068	7.13534	2.0
34.1732	66.6896	1.28	-0.03	-30.00	20.00	7.317	-0.10317	7.13530	0.0
34.1932	66.6896	1.28	-0.03	-30.00	20.00	7.317	-0.10566	7.13527	4.0
34.2132	66.6896	1.28	-0.03	-30.00	20.00	7.317	-0.10815	7.13523	0.0

32.2232	66.7096	1.28	-0.03	-30.00	20.00	7.317	0.14097	7.13655	0.0
32.2432	66.7096	1.28	-0.03	-30.00	20.00	7.317	0.13848	7.13660	0.0
32.2632	66.7096	1.28	-0.03	-30.00	20.00	7.317	0.13598	7.13664	2.0
32.2832	66.7096	1.28	-0.03	-30.00	20.00	7.317	0.13349	7.13669	0.0
32.3032	66.7096	1.28	-0.03	-30.00	20.00	7.317	0.13100	7.13674	2.0
32.3232	66.7096	1.28	-0.03	-30.00	20.00	7.317	0.12851	7.13678	2.0
32.3432	66.7096	1.28	-0.03	-30.00	20.00	7.317	0.12602	7.13683	0.0
32.3632	66.7096	1.28	-0.03	-30.00	20.00	7.317	0.12353	7.13687	2.0
32.3832	66.7096	1.28	-0.03	-30.00	20.00	7.317	0.12104	7.13691	2.0
32.4032	66.7096	1.28	-0.03	-30.00	20.00	7.317	0.11855	7.13696	0.0
32.4232	66.7096	1.28	-0.03	-30.00	20.00	7.317	0.11605	7.13700	2.0
32.4432	66.7096	1.28	-0.03	-30.00	20.00	7.317	0.11356	7.13704	2.0
32.4632	66.7096	1.28	-0.03	-30.00	20.00	7.317	0.11107	7.13708	4.0
32.4832	66.7096	1.28	-0.03	-30.00	20.00	7.317	0.10858	7.13711	0.0
32.5032	66.7096	1.28	-0.03	-30.00	20.00	7.317	0.10609	7.13715	2.0
32.5232	66.7096	1.28	-0.03	-30.00	20.00	7.317	0.10360	7.13719	2.0
32.5432	66.7096	1.28	-0.03	-30.00	20.00	7.317	0.10111	7.13722	0.0
32.5632	66.7096	1.28	-0.03	-30.00	20.00	7.317	0.09861	7.13726	2.0
32.5832	66.7096	1.28	-0.03	-30.00	20.00	7.317	0.09612	7.13729	0.0
32.6032	66.7096	1.28	-0.03	-30.00	20.00	7.317	0.09363	7.13733	4.0
32.6232	66.7096	1.28	-0.03	-30.00	20.00	7.317	0.09114	7.13736	2.0
32.6432	66.7096	1.28	-0.03	-30.00	20.00	7.317	0.08865	7.13739	0.0
32.6632	66.7096	1.28	-0.03	-30.00	20.00	7.317	0.08616	7.13742	2.0
32.6832	66.7096	1.28	-0.03	-30.00	20.00	7.317	0.08367	7.13745	0.0
32.7032	66.7096	1.28	-0.03	-30.00	20.00	7.317	0.08117	7.13748	0.0
32.7232	66.7096	1.28	-0.03	-30.00	20.00	7.317	0.07868	7.13751	0.0
32.7432	66.7096	1.28	-0.03	-30.00	20.00	7.317	0.07619	7.13753	2.0
32.7632	66.7096	1.28	-0.03	-30.00	20.00	7.317	0.07370	7.13756	0.0
32.7832	66.7096	1.28	-0.03	-30.00	20.00	7.317	0.07121	7.13758	0.0
32.8032	66.7096	1.28	-0.03	-30.00	20.00	7.317	0.06872	7.13761	4.0
32.8232	66.7096	1.28	-0.03	-30.00	20.00	7.317	0.06623	7.13763	0.0
32.8432	66.7096	1.28	-0.03	-30.00	20.00	7.317	0.06373	7.13766	0.0
32.8632	66.7096	1.28	-0.03	-30.00	20.00	7.317	0.06124	7.13768	0.0
32.8832	66.7096	1.28	-0.03	-30.00	20.00	7.317	0.05875	7.13770	0.0
32.9032	66.7096	1.28	-0.03	-30.00	20.00	7.317	0.05626	7.13772	2.0
32.9232	66.7096	1.28	-0.03	-30.00	20.00	7.317	0.05377	7.13774	0.0
32.9432	66.7096	1.28	-0.03	-30.00	20.00	7.317	0.05128	7.13776	4.0
32.9632	66.7096	1.28	-0.03	-30.00	20.00	7.317	0.04879	7.13777	0.0
32.9832	66.7096	1.28	-0.03	-30.00	20.00	7.317	0.04629	7.13779	0.0
33.0032	66.7096	1.28	-0.03	-30.00	20.00	7.317	0.04380	7.13781	2.0
33.0232	66.7096	1.28	-0.03	-30.00	20.00	7.317	0.04131	7.13782	2.0
33.0432	66.7096	1.28	-0.03	-30.00	20.00	7.317	0.03882	7.13783	0.0
33.0632	66.7096	1.28	-0.03	-30.00	20.00	7.317	0.03633	7.13785	4.0
33.0832	66.7096	1.28	-0.03	-30.00	20.00	7.317	0.03384	7.13786	0.0
33.1032	66.7096	1.28	-0.03	-30.00	20.00	7.317	0.03134	7.13787	0.0
33.1232	66.7096	1.28	-0.03	-30.00	20.00	7.317	0.02885	7.13788	2.0
33.1432	66.7096	1.28	-0.03	-30.00	20.00	7.317	0.02636	7.13789	0.0
33.1632	66.7096	1.28	-0.03	-30.00	20.00	7.317	0.02387	7.13790	0.0
33.1832	66.7096	1.28	-0.03	-30.00	20.00	7.317	0.02138	7.13791	2.0
33.2032	66.7096	1.28	-0.03	-30.00	20.00	7.317	0.01889	7.13792	2.0
33.2232	66.7096	1.28	-0.03	-30.00	20.00	7.317	0.01639	7.13792	2.0
33.2432	66.7096	1.28	-0.03	-30.00	20.00	7.317	0.01390	7.13793	4.0
33.2632	66.7096	1.28	-0.03	-30.00	20.00	7.317	0.01141	7.13793	0.0
33.2832	66.7096	1.28	-0.03	-30.00	20.00	7.317	0.00892	7.13793	0.0
[...]
35.1132	69.6096	1.28	-0.03	-30.00	20.00	7.317	-0.03989	7.40995	0.0
35.1332	69.6096	1.28	-0.03	-30.00	20.00	7.317	-0.04247	7.40993	2.0
35.1532	69.6096	1.28	-0.03	-30.00	20.00	7.317	-0.04506	7.40992	4.0
35.1732	69.6096	1.28	-0.03	-30.00	20.00	7.317	-0.04764	7.40990	0.0
35.1932	69.6096	1.28	-0.03	-30.00	20.00	7.317	-0.05023	7.40988	2.0
35.2132	69.6096	1.28	-0.03	-30.00	20.00	7.317	-0.05282	7.40987	2.0
35.2332	69.6096	1.28	-0.03	-30.00	20.00	7.317	-0.05540	7.40985	0.0
35.2532	69.6096	1.28	-0.03	-30.00	20.00	7.317	-0.05799	7.40983	2.0
35.2732	69.6096	1.28	-0.03	-30.00	20.00	7.317	-0.06058	7.40981	10.0
35.2932	69.6096	1.28	-0.03	-30.00	20.00	7.317	-0.06316	7.40978	4.0
35.3132	69.6096	1.28	-0.03	-30.00	20.00	7.317	-0.06575	7.40976	2.0
35.3332	69.6096	1.28	-0.03	-30.00	20.00	7.317	-0.06834	7.40974	4.0
35.3532	69.6096	1.28	-0.03	-30.00	20.00	7.317	-0.07092	7.40971	0.0
35.3732	69.6096	1.28	-0.03	-30.00	20.00	7.317	-0.07351	7.40969	2.0
35.3932	69.6096	1.28	-0.03	-30.00	20.00	7.317	-0.07610	7.40966	2.0
35.4132	69.6096	1.28	-0.03	-30.00	20.00	7.317	-0.07868	7.40964	2.0
35.4332	69.6096	1.28	-0.03	-30.00	20.00	7.317	-0.08127	7.40961	0.0
35.4532	69.6096	1.28	-0.03	-30.00	20.00	7.317	-0.08386	7.40958	2.0
35.4732	69.6096	1.28	-0.03	-30.00	20.00	7.317	-0.08644	7.40955	2.0
35.4932	69.6096	1.28	-0.03	-30.00	20.00	7.317	-0.08903	7.40952	0.0
35.5132	69.6096	1.28	-0.03	-30.00	20.00	7.317	-0.09161	7.40949	0.0
35.5332	69.6096	1.28	-0.03	-30.00	20.00	7.317	-0.09420	7.40945	0.0
35.5532	69.6096	1.28	-0.03	-30.00	20.00	7.317	-0.09679	7.40942	0.0
35.5732	69.6096	1.28	-0.03	-30.00	20.00	7.317	-0.09937	7.40939	0.0
35.5932	69.6096	1.28	-0.03	-30.00	20.00	7.317	-0.10196	7.40935	2.0
35.6132	69.6096	1.28	-0.03	-30.00	20.00	7.317	-0.10455	7.40932	0.0
35.6332	69.6096	1.28	-0.03	-30.00	20.00	7.317	-0.10713	7.40928	0.0
35.6532	69.6096	1.28	-0.03	-30.00	20.00	7.317	-0.10972	7.40924	2.0
35.6732	69.6096	1.28	-0.03	-30.00	20.00	7.317	-0.11231	7.40920	4.0

33.6832	69.6296	1.28	-0.03	-30.00	20.00	7.317	0.14638	7.41047	0.0
33.7032	69.6296	1.28	-0.03	-30.00	20.00	7.317	0.14379	7.41052	2.0
33.7232	69.6296	1.28	-0.03	-30.00	20.00	7.317	0.14120	7.41057	0.0
33.7432	69.6296	1.28	-0.03	-30.00	20.00	7.317	0.13862	7.41062	2.0
33.7632	69.6296	1.28	-0.03	-30.00	20.00	7.317	0.13603	7.41067	4.0
33.7832	69.6296	1.28	-0.03	-30.00	20.00	7.317	0.13344	7.41071	0.0
33.8032	69.6296	1.28	-0.03	-30.00	20.00	7.317	0.13086	7.41076	0.0
33.8232	69.6296	1.28	-0.03	-30.00	20.00	7.317	0.12827	7.41080	0.0
33.8432	69.6296	1.28	-0.03	-30.00	20.00	7.317	0.12568	7.41085	0.0
33.8632	69.6296	1.28	-0.03	-30.00	20.00	7.317	0.12310	7.41089	2.0
33.8832	69.6296	1.28	-0.03	-30.00	20.00	7.317	0.12051	7.41093	2.0
33.9032	69.6296	1.28	-0.03	-30.00	20.00	7.317	0.11792	7.41098	4.0
33.9232	69.6296	1.28	-0.03	-30.00	20.00	7.317	0.11533	7.41102	2.0
33.9432	69.6296	1.28	-0.03	-30.00	20.00	7.317	0.11275	7.41106	0.0
33.9632	69.6296	1.28	-0.03	-30.00	20.00	7.317	0.11016	7.41110	2.0
33.9832	69.6296	1.28	-0.03	-30.00	20.00	7.317	0.10757	7.41113	0.0
34.0032	69.6296	1.28	-0.03	-30.00	20.00	7.317	0.10499	7.41117	2.0
34.0232	69.6296	1.28	-0.03	-30.00	20.00	7.317	0.10240	7.41121	4.0
34.0432	69.6296	1.28	-0.03	-30.00	20.00	7.317	0.09981	7.41124	4.0
34.0632	69.6296	1.28	-0.03	-30.00	20.00	7.317	0.09723	7.41128	0.0
34.0832	69.6296	1.28	-0.03	-30.00	20.00	7.317	0.09464	7.41131	8.0
34.1032	69.6296	1.28	-0.03	-30.00	20.00	7.317	0.09205	7.41134	2.0
34.1232	69.6296	1.28	-0.03	-30.00	20.00	7.317	0.08946	7.41137	2.0
34.1432	69.6296	1.28	-0.03	-30.00	20.00	7.317	0.08688	7.41140	0.0
34.1632	69.6296	1.28	-0.03	-30.00	20.00	7.317	0.08429	7.41143	2.0
34.1832	69.6296	1.28	-0.03	-30.00	20.00	7.317	0.08170	7.41146	2.0
34.2032	69.6296	1.28	-0.03	-30.00	20.00	7.317	0.07912	7.41149	0.0
34.2232	69.6296	1.28	-0.03	-30.00	20.00	7.317	0.07653	7.41152	0.0
34.2432	69.6296	1.28	-0.03	-30.00	20.00	7.317	0.07394	7.41155	0.0
34.2632	69.6296	1.28	-0.03	-30.00	20.00	7.317	0.07136	7.41157	4.0
34.2832	69.6296	1.28	-0.03	-30.00	20.00	7.317	0.06877	7.41160	0.0
34.3032	69.6296	1.28	-0.03	-30.00	20.00	7.317	0.06618	7.41162	0.0
34.3232	69.6296	1.28	-0.03	-30.00	20.00	7.317	0.06359	7.41164	4.0
34.3432	69.6296	1.28	-0.03	-30.00	20.00	7.317	0.06101	7.41166	0.0
34.3632	69.6296	1.28	-0.03	-30.00	20.00	7.317	0.05842	7.41168	2.0
34.3832	69.6296	1.28	-0.03	-30.00	20.00	7.317	0.05583	7.41170	0.0
34.4032	69.6296	1.28	-0.03	-30.00	20.00	7.317	0.05325	7.41172	0.0
34.4232	69.6296	1.28	-0.03	-30.00	20.00	7.317	0.05066	7.41174	2.0
34.4432	69.6296	1.28	-0.03	-30.00	20.00	7.317	0.04807	7.41176	32.0
34.4632	69.6296	1.28	-0.03	-30.00	20.00	7.317	0.04548	7.41177	8.0
34.4832	69.6296	1.28	-0.03	-30.00	20.00	7.317	0.04290	7.41179	4.0
34.5032	69.6296	1.28	-0.03	-30.00	20.00	7.317	0.04031	7.41180	0.0
34.5232	69.6296	1.28	-0.03	-30.00	20.00	7.317	0.03772	7.41182	2.0
34.5432	69.6296	1.28	-0.03	-30.00	20.00	7.317	0.03513	7.41183	2.0
34.5632	69.6296	1.28	-0.03	-30.00	20.00	7.317	0.03255	7.41184	0.0
34.5832	69.6296	1.28	-0.03	-30.00	20.00	7.317	0.02996	7.41185	2.0
34.6032	69.6296	1.28	-0.03	-30.00	20.00	7.317	0.02737	7.41186	0.0
34.6232	69.6296	1.28	-0.03	-30.00	20.00	7.317	0.02479	7.41187	0.0
34.6432	69.6296	1.28	-0.03	-30.00	20.00	7.317	0.02220	7.41188	4.0
34.6632	69.6296	1.28	-0.03	-30.00	20.00	7.317	0.01961	7.41189	0.0
34.6832	69.6296	1.28	-0.03	-30.00	20.00	7.317	0.01702	7.41189	0.0
34.7032	69.6296	1.28	-0.03	-30.00	20.00	7.317	0.01444	7.41190	4.0
34.7232	69.6296	1.28	-0.03	-30.00	20.00	7.317	0.01185	7.41190	6.0
34.7432	69.6296	1.28	-0.03	-30.00	20.00	7.317	0.00926	7.41191	6.0
34.7632	69.6296	1.28	-0.03	-30.00	20.00	7.317	0.00668	7.41191	2.0
34.7832	69.6296	1.28	-0.03	-30.00	20.00	7.317	0.00409	7.41191	8.0
34.8032	69.6296	1.28	-0.03	-30.00	20.00	7.317	0.00150	7.41191	4.0
34.8232	69.6296	1.28	-0.03	-30.00	20.00	7.317	-0.00109	7.41191	2.0
34.8432	69.6296	1.28	-0.03	-30.00	20.00	7.317	-0.00367	7.41191	2.0
34.8632	69.6296	1.28	-0.03	-30.00	20.00	7.317	-0.00626	7.41191	2.0
34.8832	69.6296	1.28	-0.03	-30.00	20.00	7.317	-0.00885	7.41191	0.0
34.9032	69.6296	1.28	-0.03	-30.00	20.00	7.317	-0.01144	7.41191	0.0
34.9232	69.6296	1.28	-0.03	-30.00	20.00	7.317	-0.01402	7.41190	4.0
34.9432	69.6296	1.28	-0.03	-30.00	20.00	7.317	-0.01661	7.41190	0.0
34.9632	69.6296	1.28	-0.03	-30.00	20.00	7.317	-0.01920	7.41189	2.0
34.9832	69.6296	1.28	-0.03	-30.00	20.00	7.317	-0.02178	7.41188	2.0
35.0032	69.6296	1.28	-0.03	-30.00	20.00	7.317	-0.02437	7.41187	2.0
35.0232	69.6296	1.28	-0.03	-30.00	20.00	7.317	-0.02696	7.41187	4.0
35.0432	69.6296	1.28	-0.03	-30.00	20.00	7.317	-0.02955	7.41186	2.0
35.0632	69.6296	1.28	-0.03	-30.00	20.00	7.317	-0.03213	7.41184	0.0
35.0832	69.6296	1.28	-0.03	-30.00	20.00	7.317	-0.03472	7.41183	0.0
35.1032	69.6296	1.28	-0.03	-30.00	20.00	7.317	-0.03731	7.41182	0.0
35.1232	69.6296	1.28	-0.03	-30.00	20.00	7.317	-0.03990	7.41181	0.0
35.1432	69.6296	1.28	-0.03	-30.00	20.00	7.317	-0.04248	7.41179	4.0
35.1632	69.6296	1.28	-0.03	-30.00	20.00	7.317	-0.04507	7.41178	2.0
35.1832	69.6296	1.28	-0.03	-30.00	20.00	7.317	-0.04766	7.41176	0.0
35.2032	69.6296	1.28	-0.03	-30.00	20.00	7.317	-0.05024	7.41174	0.0
35.2232	69.6296	1.28	-0.03	-30.00	20.00	7.317	-0.05283	7.41173	0.0
35.2432	69.6296	1.28	-0.03	-30.00	20.00	7.317	-0.05542	7.41171	2.0
35.2632	69.6296	1.28	-0.03	-30.00	20.00	7.317	-0.05801	7.41169	2.0
35.2832	69.6296	1.28	-0.03	-30.00	20.00	7.317	-0.06059	7.41167	0.0
35.3032	69.6296	1.28	-0.03	-30.00	20.00	7.317	-0.06318	7.41164	4.0
35.3232	69.6296	1.28	-0.03	-30.00	20.00	7.317	-0.06577	7.41162	0.0
35.3432	69.6296	1.28	-0.03	-30.00	20.00	7.317	-0.06835	7.41160	0.0
35.3632	69.6296	1.28	-0.03	-30.00	20.00	7.317	-0.07094	7.41157	0.0
35.3832	69.6296	1.28	-0.03	-30.00	20.00	7.317	-0.07353	7.41155	0.0
35.4032	69.6296	1.28	-0.03	-30.00	20.00	7.317	-0.07612	7.41152	2.0
35.4232	69.6296	1.28	-0.03	-30.00	20.00	7.317	-0.07870	7.41150	2.0
35.4432	69.6296	1.28	-0.03	-30.00	20.00	7.317	-0.08129	7.41147	0.0
35.4632	69.6296	1.28	-0.03	-30.00	20.00	7.317	-0.08388	7.41144	0.0
35.4832	69.6296	1.28	-0.03	-30.00	20.00	7.317	-0.08646	7.41141	4.0
35.5032	69.6296	1.28	-0.03	-30.00	20.00	7.317	-0.08905	7.41138	0.0
35.5232	69.6296	1.28	-0.03	-30.00	20.00	7.317	-0.09164	7.41135	4.0
35.5432	69.6296	1.28	-0.03	-30.00	20.00	7.317	-0.09422	7.41132	2.0
35.5632	69.6296	1.28	-0.03	-30.00	20.00	7.317	-0.09681	7.41128	2.0
35.5832	69.6296	1.28	-0.03	-30.00	20.00	7.317	-0.09940	7.41125	0.0
35.6032	69.6296	1.28	-0.03	-30.00	20.00	7.317	-0.10199	7.41121	0.0
35.6232	69.6296	1.28	-0.03	-30.00	20.00	7.317	-0.10457	7.41118	2.0
35.6432	69.6296	1.28	-0.03	-30.00	20.00	7.317	-0.10716	7.41114	0.0
35.6632	69.6296	1.28	-0.03	-30.00	20.00	7.317	-0.10975	7.41110	6.0
35.6832	69.6296	1.28	-0.03	-30.00	20.00	7.317	-0.11233	7.41106	4.0