File: Data/113xx/Omega/1.5deg-2.0deg-rsm-2h30mins_11354-annealed_004_w-scans.dat
# filename: 1.5deg-2.0deg-rsm-2h30mins_11354-annealed_004.dat
# reflection: (004)
# type: rotated into a series of omega scans
# x-axis: Omega_2Theta
#
# Omega	2Theta	Phi  	Chi   	X    	Y    	Z    	q_para	q_perp	Intensity
# [deg]	[deg] 	[deg]	[deg] 	[mm] 	[mm] 	[mm] 	[nm-1]	[nm-1]	[counts/s]
32.8539	66.6702	-0.10	0.00	0.00	-22.75	7.333	0.05992	7.13396	0.0
32.8739	66.6702	-0.10	0.00	0.00	-22.75	7.333	0.05743	7.13398	2.0
32.8939	66.6702	-0.10	0.00	0.00	-22.75	7.333	0.05494	7.13400	0.0
32.9139	66.6702	-0.10	0.00	0.00	-22.75	7.333	0.05245	7.13402	0.0
32.9339	66.6702	-0.10	0.00	0.00	-22.75	7.333	0.04996	7.13404	6.0
32.9539	66.6702	-0.10	0.00	0.00	-22.75	7.333	0.04746	7.13405	0.0
32.9739	66.6702	-0.10	0.00	0.00	-22.75	7.333	0.04497	7.13407	0.0
32.9939	66.6702	-0.10	0.00	0.00	-22.75	7.333	0.04248	7.13408	0.0
33.0139	66.6702	-0.10	0.00	0.00	-22.75	7.333	0.03999	7.13410	0.0
33.0339	66.6702	-0.10	0.00	0.00	-22.75	7.333	0.03750	7.13411	0.0
33.0539	66.6702	-0.10	0.00	0.00	-22.75	7.333	0.03501	7.13413	4.0
33.0739	66.6702	-0.10	0.00	0.00	-22.75	7.333	0.03252	7.13414	0.0
33.0939	66.6702	-0.10	0.00	0.00	-22.75	7.333	0.03003	7.13415	0.0
33.1139	66.6702	-0.10	0.00	0.00	-22.75	7.333	0.02754	7.13416	2.0
33.1339	66.6702	-0.10	0.00	0.00	-22.75	7.333	0.02505	7.13417	0.0
33.1539	66.6702	-0.10	0.00	0.00	-22.75	7.333	0.02256	7.13418	0.0
33.1739	66.6702	-0.10	0.00	0.00	-22.75	7.333	0.02007	7.13418	2.0
33.1939	66.6702	-0.10	0.00	0.00	-22.75	7.333	0.01758	7.13419	0.0
33.2139	66.6702	-0.10	0.00	0.00	-22.75	7.333	0.01509	7.13420	2.0
33.2339	66.6702	-0.10	0.00	0.00	-22.75	7.333	0.01260	7.13420	6.0
33.2539	66.6702	-0.10	0.00	0.00	-22.75	7.333	0.01011	7.13420	2.0
33.2739	66.6702	-0.10	0.00	0.00	-22.75	7.333	0.00762	7.13421	2.0
33.2939	66.6702	-0.10	0.00	0.00	-22.75	7.333	0.00513	7.13421	2.0
33.3139	66.6702	-0.10	0.00	0.00	-22.75	7.333	0.00264	7.13421	0.0
33.3339	66.6702	-0.10	0.00	0.00	-22.75	7.333	0.00015	7.13421	2.0
33.3539	66.6702	-0.10	0.00	0.00	-22.75	7.333	-0.00234	7.13421	0.0
33.3739	66.6702	-0.10	0.00	0.00	-22.75	7.333	-0.00483	7.13421	0.0
33.3939	66.6702	-0.10	0.00	0.00	-22.75	7.333	-0.00732	7.13421	2.0
33.4139	66.6702	-0.10	0.00	0.00	-22.75	7.333	-0.00981	7.13420	0.0
33.4339	66.6702	-0.10	0.00	0.00	-22.75	7.333	-0.01230	7.13420	2.0
33.4539	66.6702	-0.10	0.00	0.00	-22.75	7.333	-0.01479	7.13420	0.0
33.4739	66.6702	-0.10	0.00	0.00	-22.75	7.333	-0.01728	7.13419	0.0
33.4939	66.6702	-0.10	0.00	0.00	-22.75	7.333	-0.01977	7.13418	0.0
33.5139	66.6702	-0.10	0.00	0.00	-22.75	7.333	-0.02226	7.13418	0.0
33.5339	66.6702	-0.10	0.00	0.00	-22.75	7.333	-0.02475	7.13417	0.0
33.5539	66.6702	-0.10	0.00	0.00	-22.75	7.333	-0.02724	7.13416	2.0
33.5739	66.6702	-0.10	0.00	0.00	-22.75	7.333	-0.02973	7.13415	2.0
33.5939	66.6702	-0.10	0.00	0.00	-22.75	7.333	-0.03222	7.13414	0.0
33.6139	66.6702	-0.10	0.00	0.00	-22.75	7.333	-0.03471	7.13413	0.0
33.6339	66.6702	-0.10	0.00	0.00	-22.75	7.333	-0.03721	7.13411	2.0
33.6539	66.6702	-0.10	0.00	0.00	-22.75	7.333	-0.03970	7.13410	0.0
33.6739	66.6702	-0.10	0.00	0.00	-22.75	7.333	-0.04219	7.13409	2.0
33.6939	66.6702	-0.10	0.00	0.00	-22.75	7.333	-0.04468	7.13407	0.0
33.7139	66.6702	-0.10	0.00	0.00	-22.75	7.333	-0.04717	7.13406	2.0
33.7339	66.6702	-0.10	0.00	0.00	-22.75	7.333	-0.04966	7.13404	0.0
33.7539	66.6702	-0.10	0.00	0.00	-22.75	7.333	-0.05215	7.13402	0.0
33.7739	66.6702	-0.10	0.00	0.00	-22.75	7.333	-0.05464	7.13400	2.0
33.7939	66.6702	-0.10	0.00	0.00	-22.75	7.333	-0.05713	7.13398	0.0
33.8139	66.6702	-0.10	0.00	0.00	-22.75	7.333	-0.05962	7.13396	2.0
33.8339	66.6702	-0.10	0.00	0.00	-22.75	7.333	-0.06211	7.13394	0.0
33.8539	66.6702	-0.10	0.00	0.00	-22.75	7.333	-0.06460	7.13392	4.0
33.8739	66.6702	-0.10	0.00	0.00	-22.75	7.333	-0.06709	7.13390	2.0
33.8939	66.6702	-0.10	0.00	0.00	-22.75	7.333	-0.06958	7.13387	0.0
33.9139	66.6702	-0.10	0.00	0.00	-22.75	7.333	-0.07207	7.13385	0.0
33.9339	66.6702	-0.10	0.00	0.00	-22.75	7.333	-0.07456	7.13382	0.0
33.9539	66.6702	-0.10	0.00	0.00	-22.75	7.333	-0.07705	7.13380	0.0
33.9739	66.6702	-0.10	0.00	0.00	-22.75	7.333	-0.07954	7.13377	0.0
33.9939	66.6702	-0.10	0.00	0.00	-22.75	7.333	-0.08203	7.13374	0.0
34.0139	66.6702	-0.10	0.00	0.00	-22.75	7.333	-0.08452	7.13371	2.0
34.0339	66.6702	-0.10	0.00	0.00	-22.75	7.333	-0.08701	7.13368	0.0
34.0539	66.6702	-0.10	0.00	0.00	-22.75	7.333	-0.08950	7.13365	0.0
34.0739	66.6702	-0.10	0.00	0.00	-22.75	7.333	-0.09199	7.13362	0.0
34.0939	66.6702	-0.10	0.00	0.00	-22.75	7.333	-0.09448	7.13359	0.0
34.1139	66.6702	-0.10	0.00	0.00	-22.75	7.333	-0.09697	7.13355	2.0
34.1339	66.6702	-0.10	0.00	0.00	-22.75	7.333	-0.09946	7.13352	0.0
34.1539	66.6702	-0.10	0.00	0.00	-22.75	7.333	-0.10195	7.13348	2.0
34.1739	66.6702	-0.10	0.00	0.00	-22.75	7.333	-0.10444	7.13345	0.0
34.1939	66.6702	-0.10	0.00	0.00	-22.75	7.333	-0.10693	7.13341	0.0
34.2139	66.6702	-0.10	0.00	0.00	-22.75	7.333	-0.10942	7.13337	0.0
34.2339	66.6702	-0.10	0.00	0.00	-22.75	7.333	-0.11191	7.13333	0.0
34.2539	66.6702	-0.10	0.00	0.00	-22.75	7.333	-0.11440	7.13329	0.0
34.2739	66.6702	-0.10	0.00	0.00	-22.75	7.333	-0.11689	7.13325	0.0
34.2939	66.6702	-0.10	0.00	0.00	-22.75	7.333	-0.11938	7.13321	2.0
34.3139	66.6702	-0.10	0.00	0.00	-22.75	7.333	-0.12187	7.13317	0.0
34.3339	66.6702	-0.10	0.00	0.00	-22.75	7.333	-0.12436	7.13313	0.0
34.3539	66.6702	-0.10	0.00	0.00	-22.75	7.333	-0.12685	7.13308	0.0
34.3739	66.6702	-0.10	0.00	0.00	-22.75	7.333	-0.12934	7.13304	2.0
34.3939	66.6702	-0.10	0.00	0.00	-22.75	7.333	-0.13183	7.13299	2.0
34.4139	66.6702	-0.10	0.00	0.00	-22.75	7.333	-0.13432	7.13295	2.0
34.4339	66.6702	-0.10	0.00	0.00	-22.75	7.333	-0.13681	7.13290	4.0
34.4539	66.6702	-0.10	0.00	0.00	-22.75	7.333	-0.13930	7.13285	0.0
34.4739	66.6702	-0.10	0.00	0.00	-22.75	7.333	-0.14179	7.13280	0.0
34.4939	66.6702	-0.10	0.00	0.00	-22.75	7.333	-0.14428	7.13275	0.0
34.5139	66.6702	-0.10	0.00	0.00	-22.75	7.333	-0.14677	7.13270	0.0
34.5339	66.6702	-0.10	0.00	0.00	-22.75	7.333	-0.14926	7.13265	0.0
34.5539	66.6702	-0.10	0.00	0.00	-22.75	7.333	-0.15175	7.13260	0.0
34.5739	66.6702	-0.10	0.00	0.00	-22.75	7.333	-0.15424	7.13254	2.0
34.5939	66.6702	-0.10	0.00	0.00	-22.75	7.333	-0.15673	7.13249	6.0
34.6139	66.6702	-0.10	0.00	0.00	-22.75	7.333	-0.15922	7.13243	0.0
34.6339	66.6702	-0.10	0.00	0.00	-22.75	7.333	-0.16171	7.13238	2.0
34.6539	66.6702	-0.10	0.00	0.00	-22.75	7.333	-0.16420	7.13232	2.0
34.6739	66.6702	-0.10	0.00	0.00	-22.75	7.333	-0.16669	7.13226	0.0
34.6939	66.6702	-0.10	0.00	0.00	-22.75	7.333	-0.16918	7.13221	2.0
34.7139	66.6702	-0.10	0.00	0.00	-22.75	7.333	-0.17167	7.13215	6.0
34.7339	66.6702	-0.10	0.00	0.00	-22.75	7.333	-0.17415	7.13209	2.0
34.7539	66.6702	-0.10	0.00	0.00	-22.75	7.333	-0.17664	7.13202	0.0
34.7739	66.6702	-0.10	0.00	0.00	-22.75	7.333	-0.17913	7.13196	0.0
34.7939	66.6702	-0.10	0.00	0.00	-22.75	7.333	-0.18162	7.13190	2.0
34.8139	66.6702	-0.10	0.00	0.00	-22.75	7.333	-0.18411	7.13184	0.0
34.8339	66.6702	-0.10	0.00	0.00	-22.75	7.333	-0.18660	7.13177	0.0
34.8539	66.6702	-0.10	0.00	0.00	-22.75	7.333	-0.18909	7.13170	2.0

32.8639	66.6902	-0.10	0.00	0.00	-22.75	7.333	0.05993	7.13585	2.0
32.8839	66.6902	-0.10	0.00	0.00	-22.75	7.333	0.05744	7.13587	2.0
32.9039	66.6902	-0.10	0.00	0.00	-22.75	7.333	0.05495	7.13589	2.0
32.9239	66.6902	-0.10	0.00	0.00	-22.75	7.333	0.05246	7.13591	0.0
32.9439	66.6902	-0.10	0.00	0.00	-22.75	7.333	0.04997	7.13593	2.0
32.9639	66.6902	-0.10	0.00	0.00	-22.75	7.333	0.04748	7.13595	0.0
32.9839	66.6902	-0.10	0.00	0.00	-22.75	7.333	0.04499	7.13596	2.0
33.0039	66.6902	-0.10	0.00	0.00	-22.75	7.333	0.04250	7.13598	6.0
33.0239	66.6902	-0.10	0.00	0.00	-22.75	7.333	0.04000	7.13599	6.0
33.0439	66.6902	-0.10	0.00	0.00	-22.75	7.333	0.03751	7.13601	2.0
33.0639	66.6902	-0.10	0.00	0.00	-22.75	7.333	0.03502	7.13602	0.0
33.0839	66.6902	-0.10	0.00	0.00	-22.75	7.333	0.03253	7.13603	0.0
33.1039	66.6902	-0.10	0.00	0.00	-22.75	7.333	0.03004	7.13604	0.0
33.1239	66.6902	-0.10	0.00	0.00	-22.75	7.333	0.02755	7.13605	2.0
33.1439	66.6902	-0.10	0.00	0.00	-22.75	7.333	0.02506	7.13606	2.0
33.1639	66.6902	-0.10	0.00	0.00	-22.75	7.333	0.02257	7.13607	0.0
33.1839	66.6902	-0.10	0.00	0.00	-22.75	7.333	0.02008	7.13608	4.0
33.2039	66.6902	-0.10	0.00	0.00	-22.75	7.333	0.01759	7.13608	0.0
33.2239	66.6902	-0.10	0.00	0.00	-22.75	7.333	0.01510	7.13609	0.0
33.2439	66.6902	-0.10	0.00	0.00	-22.75	7.333	0.01260	7.13609	2.0
33.2639	66.6902	-0.10	0.00	0.00	-22.75	7.333	0.01011	7.13610	0.0
33.2839	66.6902	-0.10	0.00	0.00	-22.75	7.333	0.00762	7.13610	2.0
33.3039	66.6902	-0.10	0.00	0.00	-22.75	7.333	0.00513	7.13610	0.0
33.3239	66.6902	-0.10	0.00	0.00	-22.75	7.333	0.00264	7.13610	0.0
33.3439	66.6902	-0.10	0.00	0.00	-22.75	7.333	0.00015	7.13610	2.0
33.3639	66.6902	-0.10	0.00	0.00	-22.75	7.333	-0.00234	7.13610	0.0
33.3839	66.6902	-0.10	0.00	0.00	-22.75	7.333	-0.00483	7.13610	4.0
33.4039	66.6902	-0.10	0.00	0.00	-22.75	7.333	-0.00732	7.13610	0.0
33.4239	66.6902	-0.10	0.00	0.00	-22.75	7.333	-0.00981	7.13610	0.0
33.4439	66.6902	-0.10	0.00	0.00	-22.75	7.333	-0.01231	7.13609	2.0
33.4639	66.6902	-0.10	0.00	0.00	-22.75	7.333	-0.01480	7.13609	2.0
33.4839	66.6902	-0.10	0.00	0.00	-22.75	7.333	-0.01729	7.13608	2.0
33.5039	66.6902	-0.10	0.00	0.00	-22.75	7.333	-0.01978	7.13608	2.0
33.5239	66.6902	-0.10	0.00	0.00	-22.75	7.333	-0.02227	7.13607	2.0
33.5439	66.6902	-0.10	0.00	0.00	-22.75	7.333	-0.02476	7.13606	0.0
33.5639	66.6902	-0.10	0.00	0.00	-22.75	7.333	-0.02725	7.13605	6.0
33.5839	66.6902	-0.10	0.00	0.00	-22.75	7.333	-0.02974	7.13604	0.0
33.6039	66.6902	-0.10	0.00	0.00	-22.75	7.333	-0.03223	7.13603	0.0
33.6239	66.6902	-0.10	0.00	0.00	-22.75	7.333	-0.03472	7.13602	2.0
33.6439	66.6902	-0.10	0.00	0.00	-22.75	7.333	-0.03721	7.13601	2.0
33.6639	66.6902	-0.10	0.00	0.00	-22.75	7.333	-0.03971	7.13599	0.0
33.6839	66.6902	-0.10	0.00	0.00	-22.75	7.333	-0.04220	7.13598	4.0
33.7039	66.6902	-0.10	0.00	0.00	-22.75	7.333	-0.04469	7.13596	0.0
33.7239	66.6902	-0.10	0.00	0.00	-22.75	7.333	-0.04718	7.13595	0.0
33.7439	66.6902	-0.10	0.00	0.00	-22.75	7.333	-0.04967	7.13593	2.0
33.7639	66.6902	-0.10	0.00	0.00	-22.75	7.333	-0.05216	7.13591	0.0
33.7839	66.6902	-0.10	0.00	0.00	-22.75	7.333	-0.05465	7.13589	0.0
33.8039	66.6902	-0.10	0.00	0.00	-22.75	7.333	-0.05714	7.13588	0.0
33.8239	66.6902	-0.10	0.00	0.00	-22.75	7.333	-0.05963	7.13586	2.0
33.8439	66.6902	-0.10	0.00	0.00	-22.75	7.333	-0.06212	7.13583	0.0
33.8639	66.6902	-0.10	0.00	0.00	-22.75	7.333	-0.06461	7.13581	0.0
33.8839	66.6902	-0.10	0.00	0.00	-22.75	7.333	-0.06711	7.13579	0.0
33.9039	66.6902	-0.10	0.00	0.00	-22.75	7.333	-0.06960	7.13576	2.0
33.9239	66.6902	-0.10	0.00	0.00	-22.75	7.333	-0.07209	7.13574	4.0
33.9439	66.6902	-0.10	0.00	0.00	-22.75	7.333	-0.07458	7.13571	0.0
33.9639	66.6902	-0.10	0.00	0.00	-22.75	7.333	-0.07707	7.13569	2.0
33.9839	66.6902	-0.10	0.00	0.00	-22.75	7.333	-0.07956	7.13566	0.0
34.0039	66.6902	-0.10	0.00	0.00	-22.75	7.333	-0.08205	7.13563	0.0
34.0239	66.6902	-0.10	0.00	0.00	-22.75	7.333	-0.08454	7.13560	0.0
34.0439	66.6902	-0.10	0.00	0.00	-22.75	7.333	-0.08703	7.13557	0.0
34.0639	66.6902	-0.10	0.00	0.00	-22.75	7.333	-0.08952	7.13554	2.0
34.0839	66.6902	-0.10	0.00	0.00	-22.75	7.333	-0.09201	7.13551	0.0
34.1039	66.6902	-0.10	0.00	0.00	-22.75	7.333	-0.09450	7.13548	0.0
34.1239	66.6902	-0.10	0.00	0.00	-22.75	7.333	-0.09700	7.13544	2.0
34.1439	66.6902	-0.10	0.00	0.00	-22.75	7.333	-0.09949	7.13541	0.0
34.1639	66.6902	-0.10	0.00	0.00	-22.75	7.333	-0.10198	7.13538	0.0
34.1839	66.6902	-0.10	0.00	0.00	-22.75	7.333	-0.10447	7.13534	0.0
34.2039	66.6902	-0.10	0.00	0.00	-22.75	7.333	-0.10696	7.13530	0.0
34.2239	66.6902	-0.10	0.00	0.00	-22.75	7.333	-0.10945	7.13526	4.0
34.2439	66.6902	-0.10	0.00	0.00	-22.75	7.333	-0.11194	7.13523	2.0
34.2639	66.6902	-0.10	0.00	0.00	-22.75	7.333	-0.11443	7.13519	0.0
34.2839	66.6902	-0.10	0.00	0.00	-22.75	7.333	-0.11692	7.13515	4.0
34.3039	66.6902	-0.10	0.00	0.00	-22.75	7.333	-0.11941	7.13511	2.0
34.3239	66.6902	-0.10	0.00	0.00	-22.75	7.333	-0.12190	7.13506	0.0
34.3439	66.6902	-0.10	0.00	0.00	-22.75	7.333	-0.12439	7.13502	0.0
34.3639	66.6902	-0.10	0.00	0.00	-22.75	7.333	-0.12688	7.13498	2.0
34.3839	66.6902	-0.10	0.00	0.00	-22.75	7.333	-0.12937	7.13493	4.0
34.4039	66.6902	-0.10	0.00	0.00	-22.75	7.333	-0.13186	7.13489	2.0
34.4239	66.6902	-0.10	0.00	0.00	-22.75	7.333	-0.13435	7.13484	0.0
34.4439	66.6902	-0.10	0.00	0.00	-22.75	7.333	-0.13685	7.13479	0.0
34.4639	66.6902	-0.10	0.00	0.00	-22.75	7.333	-0.13934	7.13474	0.0
34.4839	66.6902	-0.10	0.00	0.00	-22.75	7.333	-0.14183	7.13469	2.0
34.5039	66.6902	-0.10	0.00	0.00	-22.75	7.333	-0.14432	7.13464	0.0
34.5239	66.6902	-0.10	0.00	0.00	-22.75	7.333	-0.14681	7.13459	4.0
34.5439	66.6902	-0.10	0.00	0.00	-22.75	7.333	-0.14930	7.13454	2.0
34.5639	66.6902	-0.10	0.00	0.00	-22.75	7.333	-0.15179	7.13449	0.0
34.5839	66.6902	-0.10	0.00	0.00	-22.75	7.333	-0.15428	7.13444	0.0
34.6039	66.6902	-0.10	0.00	0.00	-22.75	7.333	-0.15677	7.13438	2.0
34.6239	66.6902	-0.10	0.00	0.00	-22.75	7.333	-0.15926	7.13433	0.0
34.6439	66.6902	-0.10	0.00	0.00	-22.75	7.333	-0.16175	7.13427	0.0
34.6639	66.6902	-0.10	0.00	0.00	-22.75	7.333	-0.16424	7.13421	2.0
34.6839	66.6902	-0.10	0.00	0.00	-22.75	7.333	-0.16673	7.13416	0.0
34.7039	66.6902	-0.10	0.00	0.00	-22.75	7.333	-0.16922	7.13410	2.0
34.7239	66.6902	-0.10	0.00	0.00	-22.75	7.333	-0.17171	7.13404	0.0
34.7439	66.6902	-0.10	0.00	0.00	-22.75	7.333	-0.17420	7.13398	0.0
34.7639	66.6902	-0.10	0.00	0.00	-22.75	7.333	-0.17669	7.13392	0.0
34.7839	66.6902	-0.10	0.00	0.00	-22.75	7.333	-0.17918	7.13385	0.0
34.8039	66.6902	-0.10	0.00	0.00	-22.75	7.333	-0.18167	7.13379	2.0
34.8239	66.6902	-0.10	0.00	0.00	-22.75	7.333	-0.18416	7.13373	0.0
34.8439	66.6902	-0.10	0.00	0.00	-22.75	7.333	-0.18665	7.13366	0.0
34.8639	66.6902	-0.10	0.00	0.00	-22.75	7.333	-0.18914	7.13360	0.0

32.8739	66.7102	-0.10	0.00	0.00	-22.75	7.333	0.05995	7.13775	0.0
32.8939	66.7102	-0.10	0.00	0.00	-22.75	7.333	0.05746	7.13777	0.0
32.9139	66.7102	-0.10	0.00	0.00	-22.75	7.333	0.05496	7.13779	0.0
32.9339	66.7102	-0.10	0.00	0.00	-22.75	7.333	0.05247	7.13780	0.0
32.9539	66.7102	-0.10	0.00	0.00	-22.75	7.333	0.04998	7.13782	0.0
32.9739	66.7102	-0.10	0.00	0.00	-22.75	7.333	0.04749	7.13784	0.0
32.9939	66.7102	-0.10	0.00	0.00	-22.75	7.333	0.04500	7.13786	0.0
33.0139	66.7102	-0.10	0.00	0.00	-22.75	7.333	0.04251	7.13787	0.0
33.0339	66.7102	-0.10	0.00	0.00	-22.75	7.333	0.04002	7.13788	2.0
33.0539	66.7102	-0.10	0.00	0.00	-22.75	7.333	0.03752	7.13790	0.0
33.0739	66.7102	-0.10	0.00	0.00	-22.75	7.333	0.03503	7.13791	0.0
33.0939	66.7102	-0.10	0.00	0.00	-22.75	7.333	0.03254	7.13792	2.0
33.1139	66.7102	-0.10	0.00	0.00	-22.75	7.333	0.03005	7.13793	8.0
33.1339	66.7102	-0.10	0.00	0.00	-22.75	7.333	0.02756	7.13794	0.0
33.1539	66.7102	-0.10	0.00	0.00	-22.75	7.333	0.02507	7.13795	0.0
33.1739	66.7102	-0.10	0.00	0.00	-22.75	7.333	0.02257	7.13796	0.0
33.1939	66.7102	-0.10	0.00	0.00	-22.75	7.333	0.02008	7.13797	4.0
33.2139	66.7102	-0.10	0.00	0.00	-22.75	7.333	0.01759	7.13798	0.0
33.2339	66.7102	-0.10	0.00	0.00	-22.75	7.333	0.01510	7.13798	0.0
33.2539	66.7102	-0.10	0.00	0.00	-22.75	7.333	0.01261	7.13799	2.0
33.2739	66.7102	-0.10	0.00	0.00	-22.75	7.333	0.01012	7.13799	4.0
33.2939	66.7102	-0.10	0.00	0.00	-22.75	7.333	0.00762	7.13799	2.0
33.3139	66.7102	-0.10	0.00	0.00	-22.75	7.333	0.00513	7.13800	2.0
33.3339	66.7102	-0.10	0.00	0.00	-22.75	7.333	0.00264	7.13800	2.0
33.3539	66.7102	-0.10	0.00	0.00	-22.75	7.333	0.00015	7.13800	0.0
33.3739	66.7102	-0.10	0.00	0.00	-22.75	7.333	-0.00234	7.13800	0.0
33.3939	66.7102	-0.10	0.00	0.00	-22.75	7.333	-0.00483	7.13800	4.0
33.4139	66.7102	-0.10	0.00	0.00	-22.75	7.333	-0.00733	7.13799	2.0
33.4339	66.7102	-0.10	0.00	0.00	-22.75	7.333	-0.00982	7.13799	2.0
33.4539	66.7102	-0.10	0.00	0.00	-22.75	7.333	-0.01231	7.13799	0.0
33.4739	66.7102	-0.10	0.00	0.00	-22.75	7.333	-0.01480	7.13798	2.0
33.4939	66.7102	-0.10	0.00	0.00	-22.75	7.333	-0.01729	7.13798	4.0
33.5139	66.7102	-0.10	0.00	0.00	-22.75	7.333	-0.01978	7.13797	2.0
33.5339	66.7102	-0.10	0.00	0.00	-22.75	7.333	-0.02228	7.13796	2.0
33.5539	66.7102	-0.10	0.00	0.00	-22.75	7.333	-0.02477	7.13795	2.0
33.5739	66.7102	-0.10	0.00	0.00	-22.75	7.333	-0.02726	7.13794	2.0
33.5939	66.7102	-0.10	0.00	0.00	-22.75	7.333	-0.02975	7.13793	0.0
33.6139	66.7102	-0.10	0.00	0.00	-22.75	7.333	-0.03224	7.13792	0.0
33.6339	66.7102	-0.10	0.00	0.00	-22.75	7.333	-0.03473	7.13791	2.0
33.6539	66.7102	-0.10	0.00	0.00	-22.75	7.333	-0.03722	7.13790	2.0
33.6739	66.7102	-0.10	0.00	0.00	-22.75	7.333	-0.03972	7.13789	0.0
33.6939	66.7102	-0.10	0.00	0.00	-22.75	7.333	-0.04221	7.13787	2.0
33.7139	66.7102	-0.10	0.00	0.00	-22.75	7.333	-0.04470	7.13786	2.0
33.7339	66.7102	-0.10	0.00	0.00	-22.75	7.333	-0.04719	7.13784	0.0
33.7539	66.7102	-0.10	0.00	0.00	-22.75	7.333	-0.04968	7.13782	0.0
33.7739	66.7102	-0.10	0.00	0.00	-22.75	7.333	-0.05217	7.13781	6.0
33.7939	66.7102	-0.10	0.00	0.00	-22.75	7.333	-0.05467	7.13779	0.0
33.8139	66.7102	-0.10	0.00	0.00	-22.75	7.333	-0.05716	7.13777	2.0
33.8339	66.7102	-0.10	0.00	0.00	-22.75	7.333	-0.05965	7.13775	0.0
33.8539	66.7102	-0.10	0.00	0.00	-22.75	7.333	-0.06214	7.13773	0.0
33.8739	66.7102	-0.10	0.00	0.00	-22.75	7.333	-0.06463	7.13770	0.0
33.8939	66.7102	-0.10	0.00	0.00	-22.75	7.333	-0.06712	7.13768	4.0
33.9139	66.7102	-0.10	0.00	0.00	-22.75	7.333	-0.06962	7.13766	0.0
33.9339	66.7102	-0.10	0.00	0.00	-22.75	7.333	-0.07211	7.13763	6.0
33.9539	66.7102	-0.10	0.00	0.00	-22.75	7.333	-0.07460	7.13761	0.0
33.9739	66.7102	-0.10	0.00	0.00	-22.75	7.333	-0.07709	7.13758	0.0
33.9939	66.7102	-0.10	0.00	0.00	-22.75	7.333	-0.07958	7.13755	0.0
[...]
35.7439	69.6102	-0.10	0.00	0.00	-22.75	7.333	-0.12141	7.40911	4.0
35.7639	69.6102	-0.10	0.00	0.00	-22.75	7.333	-0.12400	7.40907	2.0
35.7839	69.6102	-0.10	0.00	0.00	-22.75	7.333	-0.12658	7.40903	0.0
35.8039	69.6102	-0.10	0.00	0.00	-22.75	7.333	-0.12917	7.40898	0.0
35.8239	69.6102	-0.10	0.00	0.00	-22.75	7.333	-0.13176	7.40894	4.0
35.8439	69.6102	-0.10	0.00	0.00	-22.75	7.333	-0.13434	7.40889	2.0
35.8639	69.6102	-0.10	0.00	0.00	-22.75	7.333	-0.13693	7.40884	0.0
35.8839	69.6102	-0.10	0.00	0.00	-22.75	7.333	-0.13951	7.40880	2.0
35.9039	69.6102	-0.10	0.00	0.00	-22.75	7.333	-0.14210	7.40875	0.0
35.9239	69.6102	-0.10	0.00	0.00	-22.75	7.333	-0.14469	7.40870	2.0
35.9439	69.6102	-0.10	0.00	0.00	-22.75	7.333	-0.14727	7.40865	0.0
35.9639	69.6102	-0.10	0.00	0.00	-22.75	7.333	-0.14986	7.40859	4.0
35.9839	69.6102	-0.10	0.00	0.00	-22.75	7.333	-0.15244	7.40854	2.0
36.0039	69.6102	-0.10	0.00	0.00	-22.75	7.333	-0.15503	7.40849	2.0
36.0239	69.6102	-0.10	0.00	0.00	-22.75	7.333	-0.15762	7.40843	0.0
36.0439	69.6102	-0.10	0.00	0.00	-22.75	7.333	-0.16020	7.40838	2.0
36.0639	69.6102	-0.10	0.00	0.00	-22.75	7.333	-0.16279	7.40832	0.0
36.0839	69.6102	-0.10	0.00	0.00	-22.75	7.333	-0.16537	7.40826	0.0
36.1039	69.6102	-0.10	0.00	0.00	-22.75	7.333	-0.16796	7.40821	0.0
36.1239	69.6102	-0.10	0.00	0.00	-22.75	7.333	-0.17055	7.40815	0.0
36.1439	69.6102	-0.10	0.00	0.00	-22.75	7.333	-0.17313	7.40809	0.0
36.1639	69.6102	-0.10	0.00	0.00	-22.75	7.333	-0.17572	7.40803	2.0
36.1839	69.6102	-0.10	0.00	0.00	-22.75	7.333	-0.17830	7.40796	0.0
36.2039	69.6102	-0.10	0.00	0.00	-22.75	7.333	-0.18089	7.40790	0.0
36.2239	69.6102	-0.10	0.00	0.00	-22.75	7.333	-0.18348	7.40784	2.0
36.2439	69.6102	-0.10	0.00	0.00	-22.75	7.333	-0.18606	7.40777	2.0
36.2639	69.6102	-0.10	0.00	0.00	-22.75	7.333	-0.18865	7.40771	0.0
36.2839	69.6102	-0.10	0.00	0.00	-22.75	7.333	-0.19123	7.40764	2.0
36.3039	69.6102	-0.10	0.00	0.00	-22.75	7.333	-0.19382	7.40757	0.0
36.3239	69.6102	-0.10	0.00	0.00	-22.75	7.333	-0.19640	7.40751	2.0

34.3339	69.6302	-0.10	0.00	0.00	-22.75	7.333	0.06225	7.41171	2.0
34.3539	69.6302	-0.10	0.00	0.00	-22.75	7.333	0.05966	7.41173	0.0
34.3739	69.6302	-0.10	0.00	0.00	-22.75	7.333	0.05707	7.41175	2.0
34.3939	69.6302	-0.10	0.00	0.00	-22.75	7.333	0.05449	7.41177	2.0
34.4139	69.6302	-0.10	0.00	0.00	-22.75	7.333	0.05190	7.41179	0.0
34.4339	69.6302	-0.10	0.00	0.00	-22.75	7.333	0.04931	7.41181	2.0
34.4539	69.6302	-0.10	0.00	0.00	-22.75	7.333	0.04673	7.41182	0.0
34.4739	69.6302	-0.10	0.00	0.00	-22.75	7.333	0.04414	7.41184	2.0
34.4939	69.6302	-0.10	0.00	0.00	-22.75	7.333	0.04155	7.41185	2.0
34.5139	69.6302	-0.10	0.00	0.00	-22.75	7.333	0.03896	7.41187	2.0
34.5339	69.6302	-0.10	0.00	0.00	-22.75	7.333	0.03638	7.41188	4.0
34.5539	69.6302	-0.10	0.00	0.00	-22.75	7.333	0.03379	7.41189	0.0
34.5739	69.6302	-0.10	0.00	0.00	-22.75	7.333	0.03120	7.41190	2.0
34.5939	69.6302	-0.10	0.00	0.00	-22.75	7.333	0.02862	7.41191	0.0
34.6139	69.6302	-0.10	0.00	0.00	-22.75	7.333	0.02603	7.41192	0.0
34.6339	69.6302	-0.10	0.00	0.00	-22.75	7.333	0.02344	7.41193	0.0
34.6539	69.6302	-0.10	0.00	0.00	-22.75	7.333	0.02085	7.41194	0.0
34.6739	69.6302	-0.10	0.00	0.00	-22.75	7.333	0.01827	7.41195	2.0
34.6939	69.6302	-0.10	0.00	0.00	-22.75	7.333	0.01568	7.41195	0.0
34.7139	69.6302	-0.10	0.00	0.00	-22.75	7.333	0.01309	7.41196	2.0
34.7339	69.6302	-0.10	0.00	0.00	-22.75	7.333	0.01050	7.41196	0.0
34.7539	69.6302	-0.10	0.00	0.00	-22.75	7.333	0.00792	7.41197	0.0
34.7739	69.6302	-0.10	0.00	0.00	-22.75	7.333	0.00533	7.41197	0.0
34.7939	69.6302	-0.10	0.00	0.00	-22.75	7.333	0.00274	7.41197	2.0
34.8139	69.6302	-0.10	0.00	0.00	-22.75	7.333	0.00016	7.41197	0.0
34.8339	69.6302	-0.10	0.00	0.00	-22.75	7.333	-0.00243	7.41197	0.0
34.8539	69.6302	-0.10	0.00	0.00	-22.75	7.333	-0.00502	7.41197	0.0
34.8739	69.6302	-0.10	0.00	0.00	-22.75	7.333	-0.00761	7.41197	2.0
34.8939	69.6302	-0.10	0.00	0.00	-22.75	7.333	-0.01019	7.41196	2.0
34.9139	69.6302	-0.10	0.00	0.00	-22.75	7.333	-0.01278	7.41196	0.0
34.9339	69.6302	-0.10	0.00	0.00	-22.75	7.333	-0.01537	7.41195	8.0
34.9539	69.6302	-0.10	0.00	0.00	-22.75	7.333	-0.01796	7.41195	2.0
34.9739	69.6302	-0.10	0.00	0.00	-22.75	7.333	-0.02054	7.41194	6.0
34.9939	69.6302	-0.10	0.00	0.00	-22.75	7.333	-0.02313	7.41193	2.0
35.0139	69.6302	-0.10	0.00	0.00	-22.75	7.333	-0.02572	7.41193	4.0
35.0339	69.6302	-0.10	0.00	0.00	-22.75	7.333	-0.02830	7.41192	2.0
35.0539	69.6302	-0.10	0.00	0.00	-22.75	7.333	-0.03089	7.41191	2.0
35.0739	69.6302	-0.10	0.00	0.00	-22.75	7.333	-0.03348	7.41189	0.0
35.0939	69.6302	-0.10	0.00	0.00	-22.75	7.333	-0.03607	7.41188	22.0
35.1139	69.6302	-0.10	0.00	0.00	-22.75	7.333	-0.03865	7.41187	2.0
35.1339	69.6302	-0.10	0.00	0.00	-22.75	7.333	-0.04124	7.41186	4.0
35.1539	69.6302	-0.10	0.00	0.00	-22.75	7.333	-0.04383	7.41184	0.0
35.1739	69.6302	-0.10	0.00	0.00	-22.75	7.333	-0.04642	7.41182	2.0
35.1939	69.6302	-0.10	0.00	0.00	-22.75	7.333	-0.04900	7.41181	4.0
35.2139	69.6302	-0.10	0.00	0.00	-22.75	7.333	-0.05159	7.41179	2.0
35.2339	69.6302	-0.10	0.00	0.00	-22.75	7.333	-0.05418	7.41177	4.0
35.2539	69.6302	-0.10	0.00	0.00	-22.75	7.333	-0.05676	7.41175	0.0
35.2739	69.6302	-0.10	0.00	0.00	-22.75	7.333	-0.05935	7.41173	2.0
35.2939	69.6302	-0.10	0.00	0.00	-22.75	7.333	-0.06194	7.41171	0.0
35.3139	69.6302	-0.10	0.00	0.00	-22.75	7.333	-0.06453	7.41169	2.0
35.3339	69.6302	-0.10	0.00	0.00	-22.75	7.333	-0.06711	7.41167	2.0
35.3539	69.6302	-0.10	0.00	0.00	-22.75	7.333	-0.06970	7.41164	2.0
35.3739	69.6302	-0.10	0.00	0.00	-22.75	7.333	-0.07229	7.41162	2.0
35.3939	69.6302	-0.10	0.00	0.00	-22.75	7.333	-0.07487	7.41159	2.0
35.4139	69.6302	-0.10	0.00	0.00	-22.75	7.333	-0.07746	7.41157	4.0
35.4339	69.6302	-0.10	0.00	0.00	-22.75	7.333	-0.08005	7.41154	0.0
35.4539	69.6302	-0.10	0.00	0.00	-22.75	7.333	-0.08264	7.41151	0.0
35.4739	69.6302	-0.10	0.00	0.00	-22.75	7.333	-0.08522	7.41148	0.0
35.4939	69.6302	-0.10	0.00	0.00	-22.75	7.333	-0.08781	7.41145	0.0
35.5139	69.6302	-0.10	0.00	0.00	-22.75	7.333	-0.09040	7.41142	0.0
35.5339	69.6302	-0.10	0.00	0.00	-22.75	7.333	-0.09298	7.41139	4.0
35.5539	69.6302	-0.10	0.00	0.00	-22.75	7.333	-0.09557	7.41135	2.0
35.5739	69.6302	-0.10	0.00	0.00	-22.75	7.333	-0.09816	7.41132	4.0
35.5939	69.6302	-0.10	0.00	0.00	-22.75	7.333	-0.10075	7.41129	4.0
35.6139	69.6302	-0.10	0.00	0.00	-22.75	7.333	-0.10333	7.41125	2.0
35.6339	69.6302	-0.10	0.00	0.00	-22.75	7.333	-0.10592	7.41121	2.0
35.6539	69.6302	-0.10	0.00	0.00	-22.75	7.333	-0.10851	7.41118	0.0
35.6739	69.6302	-0.10	0.00	0.00	-22.75	7.333	-0.11109	7.41114	0.0
35.6939	69.6302	-0.10	0.00	0.00	-22.75	7.333	-0.11368	7.41110	0.0
35.7139	69.6302	-0.10	0.00	0.00	-22.75	7.333	-0.11627	7.41106	2.0
35.7339	69.6302	-0.10	0.00	0.00	-22.75	7.333	-0.11885	7.41102	4.0
35.7539	69.6302	-0.10	0.00	0.00	-22.75	7.333	-0.12144	7.41097	0.0
35.7739	69.6302	-0.10	0.00	0.00	-22.75	7.333	-0.12403	7.41093	0.0
35.7939	69.6302	-0.10	0.00	0.00	-22.75	7.333	-0.12661	7.41089	2.0
35.8139	69.6302	-0.10	0.00	0.00	-22.75	7.333	-0.12920	7.41084	4.0
35.8339	69.6302	-0.10	0.00	0.00	-22.75	7.333	-0.13179	7.41080	2.0
35.8539	69.6302	-0.10	0.00	0.00	-22.75	7.333	-0.13438	7.41075	6.0
35.8739	69.6302	-0.10	0.00	0.00	-22.75	7.333	-0.13696	7.41070	0.0
35.8939	69.6302	-0.10	0.00	0.00	-22.75	7.333	-0.13955	7.41066	2.0
35.9139	69.6302	-0.10	0.00	0.00	-22.75	7.333	-0.14214	7.41061	0.0
35.9339	69.6302	-0.10	0.00	0.00	-22.75	7.333	-0.14472	7.41056	0.0
35.9539	69.6302	-0.10	0.00	0.00	-22.75	7.333	-0.14731	7.41051	2.0
35.9739	69.6302	-0.10	0.00	0.00	-22.75	7.333	-0.14990	7.41045	2.0
35.9939	69.6302	-0.10	0.00	0.00	-22.75	7.333	-0.15248	7.41040	4.0
36.0139	69.6302	-0.10	0.00	0.00	-22.75	7.333	-0.15507	7.41035	0.0
36.0339	69.6302	-0.10	0.00	0.00	-22.75	7.333	-0.15766	7.41029	2.0
36.0539	69.6302	-0.10	0.00	0.00	-22.75	7.333	-0.16024	7.41024	0.0
36.0739	69.6302	-0.10	0.00	0.00	-22.75	7.333	-0.16283	7.41018	0.0
36.0939	69.6302	-0.10	0.00	0.00	-22.75	7.333	-0.16542	7.41012	0.0
36.1139	69.6302	-0.10	0.00	0.00	-22.75	7.333	-0.16800	7.41007	2.0
36.1339	69.6302	-0.10	0.00	0.00	-22.75	7.333	-0.17059	7.41001	0.0
36.1539	69.6302	-0.10	0.00	0.00	-22.75	7.333	-0.17318	7.40995	0.0
36.1739	69.6302	-0.10	0.00	0.00	-22.75	7.333	-0.17576	7.40989	0.0
36.1939	69.6302	-0.10	0.00	0.00	-22.75	7.333	-0.17835	7.40982	2.0
36.2139	69.6302	-0.10	0.00	0.00	-22.75	7.333	-0.18094	7.40976	0.0
36.2339	69.6302	-0.10	0.00	0.00	-22.75	7.333	-0.18352	7.40970	0.0
36.2539	69.6302	-0.10	0.00	0.00	-22.75	7.333	-0.18611	7.40963	4.0
36.2739	69.6302	-0.10	0.00	0.00	-22.75	7.333	-0.18869	7.40957	2.0
36.2939	69.6302	-0.10	0.00	0.00	-22.75	7.333	-0.19128	7.40950	0.0
36.3139	69.6302	-0.10	0.00	0.00	-22.75	7.333	-0.19387	7.40943	0.0
36.3339	69.6302	-0.10	0.00	0.00	-22.75	7.333	-0.19645	7.40937	0.0