File: Data/113xx/Omega/1.5deg-2.0deg-rsm-2h30mins_11371-as-grown_004_w-scans.dat
# filename: 1.5deg-2.0deg-rsm-2h30mins_11371-as-grown_004.dat
# reflection: (004)
# type: rotated into a series of omega scans
# x-axis: Omega_2Theta
#
# Omega	2Theta	Phi  	Chi   	X    	Y    	Z    	q_para	q_perp	Intensity
# [deg]	[deg] 	[deg]	[deg] 	[mm] 	[mm] 	[mm] 	[nm-1]	[nm-1]	[counts/s]
32.7127	67.1740	0.79	0.03	5.00	5.00	7.412	0.10959	7.18099	0.0
32.7327	67.1740	0.79	0.03	5.00	5.00	7.412	0.10708	7.18103	0.0
32.7527	67.1740	0.79	0.03	5.00	5.00	7.412	0.10457	7.18107	4.0
32.7727	67.1740	0.79	0.03	5.00	5.00	7.412	0.10207	7.18110	2.0
32.7927	67.1740	0.79	0.03	5.00	5.00	7.412	0.09956	7.18114	2.0
32.8127	67.1740	0.79	0.03	5.00	5.00	7.412	0.09705	7.18117	0.0
32.8327	67.1740	0.79	0.03	5.00	5.00	7.412	0.09455	7.18121	2.0
32.8527	67.1740	0.79	0.03	5.00	5.00	7.412	0.09204	7.18124	0.0
32.8727	67.1740	0.79	0.03	5.00	5.00	7.412	0.08953	7.18127	0.0
32.8927	67.1740	0.79	0.03	5.00	5.00	7.412	0.08703	7.18130	0.0
32.9127	67.1740	0.79	0.03	5.00	5.00	7.412	0.08452	7.18133	0.0
32.9327	67.1740	0.79	0.03	5.00	5.00	7.412	0.08201	7.18136	0.0
32.9527	67.1740	0.79	0.03	5.00	5.00	7.412	0.07951	7.18139	2.0
32.9727	67.1740	0.79	0.03	5.00	5.00	7.412	0.07700	7.18142	0.0
32.9927	67.1740	0.79	0.03	5.00	5.00	7.412	0.07449	7.18144	2.0
33.0127	67.1740	0.79	0.03	5.00	5.00	7.412	0.07199	7.18147	2.0
33.0327	67.1740	0.79	0.03	5.00	5.00	7.412	0.06948	7.18149	2.0
33.0527	67.1740	0.79	0.03	5.00	5.00	7.412	0.06697	7.18152	2.0
33.0727	67.1740	0.79	0.03	5.00	5.00	7.412	0.06446	7.18154	0.0
33.0927	67.1740	0.79	0.03	5.00	5.00	7.412	0.06196	7.18156	0.0
33.1127	67.1740	0.79	0.03	5.00	5.00	7.412	0.05945	7.18158	2.0
33.1327	67.1740	0.79	0.03	5.00	5.00	7.412	0.05694	7.18160	0.0
33.1527	67.1740	0.79	0.03	5.00	5.00	7.412	0.05444	7.18162	4.0
33.1727	67.1740	0.79	0.03	5.00	5.00	7.412	0.05193	7.18164	0.0
33.1927	67.1740	0.79	0.03	5.00	5.00	7.412	0.04942	7.18166	0.0
33.2127	67.1740	0.79	0.03	5.00	5.00	7.412	0.04692	7.18167	0.0
33.2327	67.1740	0.79	0.03	5.00	5.00	7.412	0.04441	7.18169	2.0
33.2527	67.1740	0.79	0.03	5.00	5.00	7.412	0.04190	7.18171	0.0
33.2727	67.1740	0.79	0.03	5.00	5.00	7.412	0.03940	7.18172	0.0
33.2927	67.1740	0.79	0.03	5.00	5.00	7.412	0.03689	7.18173	0.0
33.3127	67.1740	0.79	0.03	5.00	5.00	7.412	0.03438	7.18175	2.0
33.3327	67.1740	0.79	0.03	5.00	5.00	7.412	0.03188	7.18176	4.0
33.3527	67.1740	0.79	0.03	5.00	5.00	7.412	0.02937	7.18177	2.0
33.3727	67.1740	0.79	0.03	5.00	5.00	7.412	0.02686	7.18178	0.0
33.3927	67.1740	0.79	0.03	5.00	5.00	7.412	0.02435	7.18179	0.0
33.4127	67.1740	0.79	0.03	5.00	5.00	7.412	0.02185	7.18179	2.0
33.4327	67.1740	0.79	0.03	5.00	5.00	7.412	0.01934	7.18180	0.0
33.4527	67.1740	0.79	0.03	5.00	5.00	7.412	0.01683	7.18181	2.0
33.4727	67.1740	0.79	0.03	5.00	5.00	7.412	0.01433	7.18181	0.0
33.4927	67.1740	0.79	0.03	5.00	5.00	7.412	0.01182	7.18182	0.0
33.5127	67.1740	0.79	0.03	5.00	5.00	7.412	0.00931	7.18182	2.0
33.5327	67.1740	0.79	0.03	5.00	5.00	7.412	0.00681	7.18182	4.0
33.5527	67.1740	0.79	0.03	5.00	5.00	7.412	0.00430	7.18183	0.0
33.5727	67.1740	0.79	0.03	5.00	5.00	7.412	0.00179	7.18183	4.0
33.5927	67.1740	0.79	0.03	5.00	5.00	7.412	-0.00071	7.18183	2.0
33.6127	67.1740	0.79	0.03	5.00	5.00	7.412	-0.00322	7.18183	2.0
33.6327	67.1740	0.79	0.03	5.00	5.00	7.412	-0.00573	7.18183	0.0
33.6527	67.1740	0.79	0.03	5.00	5.00	7.412	-0.00824	7.18182	0.0
33.6727	67.1740	0.79	0.03	5.00	5.00	7.412	-0.01074	7.18182	2.0
33.6927	67.1740	0.79	0.03	5.00	5.00	7.412	-0.01325	7.18182	0.0
33.7127	67.1740	0.79	0.03	5.00	5.00	7.412	-0.01576	7.18181	0.0
33.7327	67.1740	0.79	0.03	5.00	5.00	7.412	-0.01826	7.18180	0.0
33.7527	67.1740	0.79	0.03	5.00	5.00	7.412	-0.02077	7.18180	4.0
33.7727	67.1740	0.79	0.03	5.00	5.00	7.412	-0.02328	7.18179	2.0
33.7927	67.1740	0.79	0.03	5.00	5.00	7.412	-0.02578	7.18178	2.0
33.8127	67.1740	0.79	0.03	5.00	5.00	7.412	-0.02829	7.18177	4.0
33.8327	67.1740	0.79	0.03	5.00	5.00	7.412	-0.03080	7.18176	0.0
33.8527	67.1740	0.79	0.03	5.00	5.00	7.412	-0.03330	7.18175	2.0
33.8727	67.1740	0.79	0.03	5.00	5.00	7.412	-0.03581	7.18174	0.0
33.8927	67.1740	0.79	0.03	5.00	5.00	7.412	-0.03832	7.18173	0.0
33.9127	67.1740	0.79	0.03	5.00	5.00	7.412	-0.04083	7.18171	4.0
33.9327	67.1740	0.79	0.03	5.00	5.00	7.412	-0.04333	7.18170	0.0
33.9527	67.1740	0.79	0.03	5.00	5.00	7.412	-0.04584	7.18168	2.0
33.9727	67.1740	0.79	0.03	5.00	5.00	7.412	-0.04835	7.18167	0.0
33.9927	67.1740	0.79	0.03	5.00	5.00	7.412	-0.05085	7.18165	4.0
34.0127	67.1740	0.79	0.03	5.00	5.00	7.412	-0.05336	7.18163	8.0
34.0327	67.1740	0.79	0.03	5.00	5.00	7.412	-0.05587	7.18161	0.0
34.0527	67.1740	0.79	0.03	5.00	5.00	7.412	-0.05837	7.18159	0.0
34.0727	67.1740	0.79	0.03	5.00	5.00	7.412	-0.06088	7.18157	4.0
34.0927	67.1740	0.79	0.03	5.00	5.00	7.412	-0.06339	7.18155	6.0
34.1127	67.1740	0.79	0.03	5.00	5.00	7.412	-0.06589	7.18153	0.0
34.1327	67.1740	0.79	0.03	5.00	5.00	7.412	-0.06840	7.18150	6.0
34.1527	67.1740	0.79	0.03	5.00	5.00	7.412	-0.07091	7.18148	0.0
34.1727	67.1740	0.79	0.03	5.00	5.00	7.412	-0.07341	7.18145	2.0
34.1927	67.1740	0.79	0.03	5.00	5.00	7.412	-0.07592	7.18143	0.0
34.2127	67.1740	0.79	0.03	5.00	5.00	7.412	-0.07843	7.18140	4.0
34.2327	67.1740	0.79	0.03	5.00	5.00	7.412	-0.08093	7.18137	0.0
34.2527	67.1740	0.79	0.03	5.00	5.00	7.412	-0.08344	7.18134	4.0
34.2727	67.1740	0.79	0.03	5.00	5.00	7.412	-0.08595	7.18131	0.0
34.2927	67.1740	0.79	0.03	5.00	5.00	7.412	-0.08845	7.18128	0.0
34.3127	67.1740	0.79	0.03	5.00	5.00	7.412	-0.09096	7.18125	2.0
34.3327	67.1740	0.79	0.03	5.00	5.00	7.412	-0.09347	7.18122	0.0
34.3527	67.1740	0.79	0.03	5.00	5.00	7.412	-0.09597	7.18119	0.0
34.3727	67.1740	0.79	0.03	5.00	5.00	7.412	-0.09848	7.18115	4.0
34.3927	67.1740	0.79	0.03	5.00	5.00	7.412	-0.10099	7.18112	0.0
34.4127	67.1740	0.79	0.03	5.00	5.00	7.412	-0.10350	7.18108	2.0
34.4327	67.1740	0.79	0.03	5.00	5.00	7.412	-0.10600	7.18105	0.0
34.4527	67.1740	0.79	0.03	5.00	5.00	7.412	-0.10851	7.18101	2.0
34.4727	67.1740	0.79	0.03	5.00	5.00	7.412	-0.11102	7.18097	0.0
34.4927	67.1740	0.79	0.03	5.00	5.00	7.412	-0.11352	7.18093	2.0
34.5127	67.1740	0.79	0.03	5.00	5.00	7.412	-0.11603	7.18089	2.0
34.5327	67.1740	0.79	0.03	5.00	5.00	7.412	-0.11853	7.18085	0.0
34.5527	67.1740	0.79	0.03	5.00	5.00	7.412	-0.12104	7.18081	0.0
34.5727	67.1740	0.79	0.03	5.00	5.00	7.412	-0.12355	7.18077	2.0
34.5927	67.1740	0.79	0.03	5.00	5.00	7.412	-0.12605	7.18072	0.0
34.6127	67.1740	0.79	0.03	5.00	5.00	7.412	-0.12856	7.18068	0.0
34.6327	67.1740	0.79	0.03	5.00	5.00	7.412	-0.13107	7.18063	4.0
34.6527	67.1740	0.79	0.03	5.00	5.00	7.412	-0.13357	7.18059	0.0
34.6727	67.1740	0.79	0.03	5.00	5.00	7.412	-0.13608	7.18054	2.0
34.6927	67.1740	0.79	0.03	5.00	5.00	7.412	-0.13859	7.18049	0.0
34.7127	67.1740	0.79	0.03	5.00	5.00	7.412	-0.14109	7.18044	2.0

32.7227	67.1940	0.79	0.03	5.00	5.00	7.412	0.10962	7.18288	2.0
32.7427	67.1940	0.79	0.03	5.00	5.00	7.412	0.10711	7.18292	4.0
32.7627	67.1940	0.79	0.03	5.00	5.00	7.412	0.10460	7.18295	0.0
32.7827	67.1940	0.79	0.03	5.00	5.00	7.412	0.10209	7.18299	0.0
32.8027	67.1940	0.79	0.03	5.00	5.00	7.412	0.09959	7.18302	0.0
32.8227	67.1940	0.79	0.03	5.00	5.00	7.412	0.09708	7.18306	0.0
32.8427	67.1940	0.79	0.03	5.00	5.00	7.412	0.09457	7.18309	2.0
32.8627	67.1940	0.79	0.03	5.00	5.00	7.412	0.09206	7.18313	2.0
32.8827	67.1940	0.79	0.03	5.00	5.00	7.412	0.08956	7.18316	2.0
32.9027	67.1940	0.79	0.03	5.00	5.00	7.412	0.08705	7.18319	2.0
32.9227	67.1940	0.79	0.03	5.00	5.00	7.412	0.08454	7.18322	0.0
32.9427	67.1940	0.79	0.03	5.00	5.00	7.412	0.08203	7.18325	0.0
32.9627	67.1940	0.79	0.03	5.00	5.00	7.412	0.07953	7.18328	2.0
32.9827	67.1940	0.79	0.03	5.00	5.00	7.412	0.07702	7.18330	0.0
33.0027	67.1940	0.79	0.03	5.00	5.00	7.412	0.07451	7.18333	4.0
33.0227	67.1940	0.79	0.03	5.00	5.00	7.412	0.07200	7.18335	0.0
33.0427	67.1940	0.79	0.03	5.00	5.00	7.412	0.06950	7.18338	2.0
33.0627	67.1940	0.79	0.03	5.00	5.00	7.412	0.06699	7.18340	0.0
33.0827	67.1940	0.79	0.03	5.00	5.00	7.412	0.06448	7.18343	2.0
33.1027	67.1940	0.79	0.03	5.00	5.00	7.412	0.06197	7.18345	2.0
33.1227	67.1940	0.79	0.03	5.00	5.00	7.412	0.05947	7.18347	2.0
33.1427	67.1940	0.79	0.03	5.00	5.00	7.412	0.05696	7.18349	0.0
33.1627	67.1940	0.79	0.03	5.00	5.00	7.412	0.05445	7.18351	0.0
33.1827	67.1940	0.79	0.03	5.00	5.00	7.412	0.05194	7.18353	0.0
33.2027	67.1940	0.79	0.03	5.00	5.00	7.412	0.04944	7.18355	0.0
33.2227	67.1940	0.79	0.03	5.00	5.00	7.412	0.04693	7.18356	6.0
33.2427	67.1940	0.79	0.03	5.00	5.00	7.412	0.04442	7.18358	8.0
33.2627	67.1940	0.79	0.03	5.00	5.00	7.412	0.04191	7.18359	0.0
33.2827	67.1940	0.79	0.03	5.00	5.00	7.412	0.03941	7.18361	2.0
33.3027	67.1940	0.79	0.03	5.00	5.00	7.412	0.03690	7.18362	0.0
33.3227	67.1940	0.79	0.03	5.00	5.00	7.412	0.03439	7.18363	0.0
33.3427	67.1940	0.79	0.03	5.00	5.00	7.412	0.03188	7.18364	0.0
33.3627	67.1940	0.79	0.03	5.00	5.00	7.412	0.02938	7.18366	2.0
33.3827	67.1940	0.79	0.03	5.00	5.00	7.412	0.02687	7.18367	4.0
33.4027	67.1940	0.79	0.03	5.00	5.00	7.412	0.02436	7.18367	0.0
33.4227	67.1940	0.79	0.03	5.00	5.00	7.412	0.02185	7.18368	2.0
33.4427	67.1940	0.79	0.03	5.00	5.00	7.412	0.01935	7.18369	2.0
33.4627	67.1940	0.79	0.03	5.00	5.00	7.412	0.01684	7.18370	0.0
33.4827	67.1940	0.79	0.03	5.00	5.00	7.412	0.01433	7.18370	0.0
33.5027	67.1940	0.79	0.03	5.00	5.00	7.412	0.01182	7.18371	0.0
33.5227	67.1940	0.79	0.03	5.00	5.00	7.412	0.00932	7.18371	0.0
33.5427	67.1940	0.79	0.03	5.00	5.00	7.412	0.00681	7.18371	0.0
33.5627	67.1940	0.79	0.03	5.00	5.00	7.412	0.00430	7.18371	0.0
33.5827	67.1940	0.79	0.03	5.00	5.00	7.412	0.00179	7.18372	0.0
33.6027	67.1940	0.79	0.03	5.00	5.00	7.412	-0.00071	7.18372	0.0
33.6227	67.1940	0.79	0.03	5.00	5.00	7.412	-0.00322	7.18371	4.0
33.6427	67.1940	0.79	0.03	5.00	5.00	7.412	-0.00573	7.18371	4.0
33.6627	67.1940	0.79	0.03	5.00	5.00	7.412	-0.00824	7.18371	6.0
33.6827	67.1940	0.79	0.03	5.00	5.00	7.412	-0.01075	7.18371	2.0
33.7027	67.1940	0.79	0.03	5.00	5.00	7.412	-0.01325	7.18370	0.0
33.7227	67.1940	0.79	0.03	5.00	5.00	7.412	-0.01576	7.18370	0.0
33.7427	67.1940	0.79	0.03	5.00	5.00	7.412	-0.01827	7.18369	2.0
33.7627	67.1940	0.79	0.03	5.00	5.00	7.412	-0.02078	7.18369	0.0
33.7827	67.1940	0.79	0.03	5.00	5.00	7.412	-0.02328	7.18368	0.0
33.8027	67.1940	0.79	0.03	5.00	5.00	7.412	-0.02579	7.18367	2.0
33.8227	67.1940	0.79	0.03	5.00	5.00	7.412	-0.02830	7.18366	2.0
33.8427	67.1940	0.79	0.03	5.00	5.00	7.412	-0.03081	7.18365	0.0
33.8627	67.1940	0.79	0.03	5.00	5.00	7.412	-0.03331	7.18364	0.0
33.8827	67.1940	0.79	0.03	5.00	5.00	7.412	-0.03582	7.18363	2.0
33.9027	67.1940	0.79	0.03	5.00	5.00	7.412	-0.03833	7.18361	0.0
33.9227	67.1940	0.79	0.03	5.00	5.00	7.412	-0.04084	7.18360	2.0
33.9427	67.1940	0.79	0.03	5.00	5.00	7.412	-0.04334	7.18358	0.0
33.9627	67.1940	0.79	0.03	5.00	5.00	7.412	-0.04585	7.18357	0.0
33.9827	67.1940	0.79	0.03	5.00	5.00	7.412	-0.04836	7.18355	0.0
34.0027	67.1940	0.79	0.03	5.00	5.00	7.412	-0.05087	7.18354	0.0
34.0227	67.1940	0.79	0.03	5.00	5.00	7.412	-0.05337	7.18352	4.0
34.0427	67.1940	0.79	0.03	5.00	5.00	7.412	-0.05588	7.18350	4.0
34.0627	67.1940	0.79	0.03	5.00	5.00	7.412	-0.05839	7.18348	0.0
34.0827	67.1940	0.79	0.03	5.00	5.00	7.412	-0.06090	7.18346	0.0
34.1027	67.1940	0.79	0.03	5.00	5.00	7.412	-0.06340	7.18344	0.0
34.1227	67.1940	0.79	0.03	5.00	5.00	7.412	-0.06591	7.18341	2.0
34.1427	67.1940	0.79	0.03	5.00	5.00	7.412	-0.06842	7.18339	2.0
34.1627	67.1940	0.79	0.03	5.00	5.00	7.412	-0.07093	7.18337	2.0
34.1827	67.1940	0.79	0.03	5.00	5.00	7.412	-0.07343	7.18334	4.0
34.2027	67.1940	0.79	0.03	5.00	5.00	7.412	-0.07594	7.18331	2.0
34.2227	67.1940	0.79	0.03	5.00	5.00	7.412	-0.07845	7.18329	0.0
34.2427	67.1940	0.79	0.03	5.00	5.00	7.412	-0.08096	7.18326	0.0
34.2627	67.1940	0.79	0.03	5.00	5.00	7.412	-0.08346	7.18323	0.0
34.2827	67.1940	0.79	0.03	5.00	5.00	7.412	-0.08597	7.18320	2.0
34.3027	67.1940	0.79	0.03	5.00	5.00	7.412	-0.08848	7.18317	2.0
34.3227	67.1940	0.79	0.03	5.00	5.00	7.412	-0.09099	7.18314	0.0
34.3427	67.1940	0.79	0.03	5.00	5.00	7.412	-0.09349	7.18311	0.0
34.3627	67.1940	0.79	0.03	5.00	5.00	7.412	-0.09600	7.18307	4.0
34.3827	67.1940	0.79	0.03	5.00	5.00	7.412	-0.09851	7.18304	0.0
34.4027	67.1940	0.79	0.03	5.00	5.00	7.412	-0.10101	7.18300	0.0
34.4227	67.1940	0.79	0.03	5.00	5.00	7.412	-0.10352	7.18297	2.0
34.4427	67.1940	0.79	0.03	5.00	5.00	7.412	-0.10603	7.18293	0.0
34.4627	67.1940	0.79	0.03	5.00	5.00	7.412	-0.10854	7.18290	0.0
34.4827	67.1940	0.79	0.03	5.00	5.00	7.412	-0.11104	7.18286	0.0
34.5027	67.1940	0.79	0.03	5.00	5.00	7.412	-0.11355	7.18282	2.0
34.5227	67.1940	0.79	0.03	5.00	5.00	7.412	-0.11606	7.18278	0.0
34.5427	67.1940	0.79	0.03	5.00	5.00	7.412	-0.11857	7.18274	0.0
34.5627	67.1940	0.79	0.03	5.00	5.00	7.412	-0.12107	7.18269	0.0
34.5827	67.1940	0.79	0.03	5.00	5.00	7.412	-0.12358	7.18265	0.0
34.6027	67.1940	0.79	0.03	5.00	5.00	7.412	-0.12609	7.18261	0.0
34.6227	67.1940	0.79	0.03	5.00	5.00	7.412	-0.12859	7.18256	4.0
34.6427	67.1940	0.79	0.03	5.00	5.00	7.412	-0.13110	7.18252	0.0
34.6627	67.1940	0.79	0.03	5.00	5.00	7.412	-0.13361	7.18247	2.0
34.6827	67.1940	0.79	0.03	5.00	5.00	7.412	-0.13612	7.18243	2.0
34.7027	67.1940	0.79	0.03	5.00	5.00	7.412	-0.13862	7.18238	0.0
34.7227	67.1940	0.79	0.03	5.00	5.00	7.412	-0.14113	7.18233	2.0

32.7327	67.2140	0.79	0.03	5.00	5.00	7.412	0.10964	7.18477	2.0
32.7527	67.2140	0.79	0.03	5.00	5.00	7.412	0.10714	7.18480	0.0
32.7727	67.2140	0.79	0.03	5.00	5.00	7.412	0.10463	7.18484	2.0
32.7927	67.2140	0.79	0.03	5.00	5.00	7.412	0.10212	7.18488	0.0
32.8127	67.2140	0.79	0.03	5.00	5.00	7.412	0.09961	7.18491	4.0
32.8327	67.2140	0.79	0.03	5.00	5.00	7.412	0.09710	7.18495	0.0
32.8527	67.2140	0.79	0.03	5.00	5.00	7.412	0.09460	7.18498	2.0
32.8727	67.2140	0.79	0.03	5.00	5.00	7.412	0.09209	7.18501	0.0
32.8927	67.2140	0.79	0.03	5.00	5.00	7.412	0.08958	7.18504	0.0
32.9127	67.2140	0.79	0.03	5.00	5.00	7.412	0.08707	7.18507	0.0
32.9327	67.2140	0.79	0.03	5.00	5.00	7.412	0.08456	7.18510	0.0
32.9527	67.2140	0.79	0.03	5.00	5.00	7.412	0.08206	7.18513	0.0
32.9727	67.2140	0.79	0.03	5.00	5.00	7.412	0.07955	7.18516	0.0
32.9927	67.2140	0.79	0.03	5.00	5.00	7.412	0.07704	7.18519	0.0
33.0127	67.2140	0.79	0.03	5.00	5.00	7.412	0.07453	7.18522	0.0
33.0327	67.2140	0.79	0.03	5.00	5.00	7.412	0.07202	7.18524	2.0
33.0527	67.2140	0.79	0.03	5.00	5.00	7.412	0.06952	7.18527	0.0
33.0727	67.2140	0.79	0.03	5.00	5.00	7.412	0.06701	7.18529	0.0
33.0927	67.2140	0.79	0.03	5.00	5.00	7.412	0.06450	7.18531	0.0
33.1127	67.2140	0.79	0.03	5.00	5.00	7.412	0.06199	7.18534	0.0
33.1327	67.2140	0.79	0.03	5.00	5.00	7.412	0.05948	7.18536	0.0
33.1527	67.2140	0.79	0.03	5.00	5.00	7.412	0.05697	7.18538	4.0
33.1727	67.2140	0.79	0.03	5.00	5.00	7.412	0.05447	7.18540	0.0
33.1927	67.2140	0.79	0.03	5.00	5.00	7.412	0.05196	7.18541	0.0
33.2127	67.2140	0.79	0.03	5.00	5.00	7.412	0.04945	7.18543	0.0
33.2327	67.2140	0.79	0.03	5.00	5.00	7.412	0.04694	7.18545	2.0
33.2527	67.2140	0.79	0.03	5.00	5.00	7.412	0.04443	7.18547	4.0
33.2727	67.2140	0.79	0.03	5.00	5.00	7.412	0.04193	7.18548	2.0
33.2927	67.2140	0.79	0.03	5.00	5.00	7.412	0.03942	7.18549	0.0
33.3127	67.2140	0.79	0.03	5.00	5.00	7.412	0.03691	7.18551	0.0
33.3327	67.2140	0.79	0.03	5.00	5.00	7.412	0.03440	7.18552	2.0
33.3527	67.2140	0.79	0.03	5.00	5.00	7.412	0.03189	7.18553	2.0
33.3727	67.2140	0.79	0.03	5.00	5.00	7.412	0.02938	7.18554	0.0
33.3927	67.2140	0.79	0.03	5.00	5.00	7.412	0.02688	7.18555	0.0
33.4127	67.2140	0.79	0.03	5.00	5.00	7.412	0.02437	7.18556	2.0
33.4327	67.2140	0.79	0.03	5.00	5.00	7.412	0.02186	7.18557	2.0
33.4527	67.2140	0.79	0.03	5.00	5.00	7.412	0.01935	7.18558	0.0
33.4727	67.2140	0.79	0.03	5.00	5.00	7.412	0.01684	7.18558	4.0
33.4927	67.2140	0.79	0.03	5.00	5.00	7.412	0.01433	7.18559	2.0
33.5127	67.2140	0.79	0.03	5.00	5.00	7.412	0.01183	7.18559	0.0
33.5327	67.2140	0.79	0.03	5.00	5.00	7.412	0.00932	7.18560	2.0
33.5527	67.2140	0.79	0.03	5.00	5.00	7.412	0.00681	7.18560	4.0
33.5727	67.2140	0.79	0.03	5.00	5.00	7.412	0.00430	7.18560	2.0
33.5927	67.2140	0.79	0.03	5.00	5.00	7.412	0.00179	7.18560	0.0
33.6127	67.2140	0.79	0.03	5.00	5.00	7.412	-0.00071	7.18560	0.0
33.6327	67.2140	0.79	0.03	5.00	5.00	7.412	-0.00322	7.18560	4.0
33.6527	67.2140	0.79	0.03	5.00	5.00	7.412	-0.00573	7.18560	2.0
33.6727	67.2140	0.79	0.03	5.00	5.00	7.412	-0.00824	7.18560	2.0
33.6927	67.2140	0.79	0.03	5.00	5.00	7.412	-0.01075	7.18559	0.0
33.7127	67.2140	0.79	0.03	5.00	5.00	7.412	-0.01326	7.18559	2.0
33.7327	67.2140	0.79	0.03	5.00	5.00	7.412	-0.01576	7.18559	0.0
33.7527	67.2140	0.79	0.03	5.00	5.00	7.412	-0.01827	7.18558	4.0
33.7727	67.2140	0.79	0.03	5.00	5.00	7.412	-0.02078	7.18557	4.0
33.7927	67.2140	0.79	0.03	5.00	5.00	7.412	-0.02329	7.18556	4.0
33.8127	67.2140	0.79	0.03	5.00	5.00	7.412	-0.02580	7.18556	2.0
33.8327	67.2140	0.79	0.03	5.00	5.00	7.412	-0.02831	7.18555	2.0
33.8527	67.2140	0.79	0.03	5.00	5.00	7.412	-0.03081	7.18554	2.0
33.8727	67.2140	0.79	0.03	5.00	5.00	7.412	-0.03332	7.18553	0.0
33.8927	67.2140	0.79	0.03	5.00	5.00	7.412	-0.03583	7.18551	0.0
33.9127	67.2140	0.79	0.03	5.00	5.00	7.412	-0.03834	7.18550	2.0
33.9327	67.2140	0.79	0.03	5.00	5.00	7.412	-0.04085	7.18549	4.0
33.9527	67.2140	0.79	0.03	5.00	5.00	7.412	-0.04335	7.18547	2.0
33.9727	67.2140	0.79	0.03	5.00	5.00	7.412	-0.04586	7.18546	0.0
33.9927	67.2140	0.79	0.03	5.00	5.00	7.412	-0.04837	7.18544	4.0
34.0127	67.2140	0.79	0.03	5.00	5.00	7.412	-0.05088	7.18542	12.0
34.0327	67.2140	0.79	0.03	5.00	5.00	7.412	-0.05339	7.18540	4.0
34.0527	67.2140	0.79	0.03	5.00	5.00	7.412	-0.05590	7.18539	0.0
34.0727	67.2140	0.79	0.03	5.00	5.00	7.412	-0.05840	7.18537	2.0
34.0927	67.2140	0.79	0.03	5.00	5.00	7.412	-0.06091	7.18534	2.0
34.1127	67.2140	0.79	0.03	5.00	5.00	7.412	-0.06342	7.18532	0.0
[...]
35.4627	70.1140	0.79	0.03	5.00	5.00	7.412	-0.05280	7.45672	0.0
35.4827	70.1140	0.79	0.03	5.00	5.00	7.412	-0.05540	7.45670	0.0
35.5027	70.1140	0.79	0.03	5.00	5.00	7.412	-0.05801	7.45668	0.0
35.5227	70.1140	0.79	0.03	5.00	5.00	7.412	-0.06061	7.45666	2.0
35.5427	70.1140	0.79	0.03	5.00	5.00	7.412	-0.06321	7.45664	0.0
35.5627	70.1140	0.79	0.03	5.00	5.00	7.412	-0.06581	7.45661	0.0
35.5827	70.1140	0.79	0.03	5.00	5.00	7.412	-0.06842	7.45659	0.0
35.6027	70.1140	0.79	0.03	5.00	5.00	7.412	-0.07102	7.45656	0.0
35.6227	70.1140	0.79	0.03	5.00	5.00	7.412	-0.07362	7.45654	0.0
35.6427	70.1140	0.79	0.03	5.00	5.00	7.412	-0.07623	7.45651	0.0
35.6627	70.1140	0.79	0.03	5.00	5.00	7.412	-0.07883	7.45649	0.0
35.6827	70.1140	0.79	0.03	5.00	5.00	7.412	-0.08143	7.45646	2.0
35.7027	70.1140	0.79	0.03	5.00	5.00	7.412	-0.08403	7.45643	0.0
35.7227	70.1140	0.79	0.03	5.00	5.00	7.412	-0.08664	7.45640	4.0
35.7427	70.1140	0.79	0.03	5.00	5.00	7.412	-0.08924	7.45637	2.0
35.7627	70.1140	0.79	0.03	5.00	5.00	7.412	-0.09184	7.45634	0.0
35.7827	70.1140	0.79	0.03	5.00	5.00	7.412	-0.09445	7.45630	0.0
35.8027	70.1140	0.79	0.03	5.00	5.00	7.412	-0.09705	7.45627	2.0
35.8227	70.1140	0.79	0.03	5.00	5.00	7.412	-0.09965	7.45624	4.0
35.8427	70.1140	0.79	0.03	5.00	5.00	7.412	-0.10225	7.45620	0.0
35.8627	70.1140	0.79	0.03	5.00	5.00	7.412	-0.10486	7.45617	2.0
35.8827	70.1140	0.79	0.03	5.00	5.00	7.412	-0.10746	7.45613	0.0
35.9027	70.1140	0.79	0.03	5.00	5.00	7.412	-0.11006	7.45609	0.0
35.9227	70.1140	0.79	0.03	5.00	5.00	7.412	-0.11266	7.45605	4.0
35.9427	70.1140	0.79	0.03	5.00	5.00	7.412	-0.11527	7.45601	4.0
35.9627	70.1140	0.79	0.03	5.00	5.00	7.412	-0.11787	7.45597	0.0
35.9827	70.1140	0.79	0.03	5.00	5.00	7.412	-0.12047	7.45593	0.0
36.0027	70.1140	0.79	0.03	5.00	5.00	7.412	-0.12307	7.45589	0.0
36.0227	70.1140	0.79	0.03	5.00	5.00	7.412	-0.12568	7.45584	0.0
36.0427	70.1140	0.79	0.03	5.00	5.00	7.412	-0.12828	7.45580	0.0
36.0627	70.1140	0.79	0.03	5.00	5.00	7.412	-0.13088	7.45575	4.0
36.0827	70.1140	0.79	0.03	5.00	5.00	7.412	-0.13349	7.45571	0.0
36.1027	70.1140	0.79	0.03	5.00	5.00	7.412	-0.13609	7.45566	0.0
36.1227	70.1140	0.79	0.03	5.00	5.00	7.412	-0.13869	7.45561	0.0
36.1427	70.1140	0.79	0.03	5.00	5.00	7.412	-0.14129	7.45556	2.0
36.1627	70.1140	0.79	0.03	5.00	5.00	7.412	-0.14390	7.45551	0.0
36.1827	70.1140	0.79	0.03	5.00	5.00	7.412	-0.14650	7.45546	0.0

34.1927	70.1340	0.79	0.03	5.00	5.00	7.412	0.11381	7.45789	2.0
34.2127	70.1340	0.79	0.03	5.00	5.00	7.412	0.11121	7.45793	0.0
34.2327	70.1340	0.79	0.03	5.00	5.00	7.412	0.10861	7.45797	0.0
34.2527	70.1340	0.79	0.03	5.00	5.00	7.412	0.10600	7.45800	0.0
34.2727	70.1340	0.79	0.03	5.00	5.00	7.412	0.10340	7.45804	4.0
34.2927	70.1340	0.79	0.03	5.00	5.00	7.412	0.10080	7.45808	2.0
34.3127	70.1340	0.79	0.03	5.00	5.00	7.412	0.09819	7.45811	0.0
34.3327	70.1340	0.79	0.03	5.00	5.00	7.412	0.09559	7.45815	0.0
34.3527	70.1340	0.79	0.03	5.00	5.00	7.412	0.09299	7.45818	4.0
34.3727	70.1340	0.79	0.03	5.00	5.00	7.412	0.09038	7.45821	4.0
34.3927	70.1340	0.79	0.03	5.00	5.00	7.412	0.08778	7.45824	2.0
34.4127	70.1340	0.79	0.03	5.00	5.00	7.412	0.08517	7.45827	0.0
34.4327	70.1340	0.79	0.03	5.00	5.00	7.412	0.08257	7.45830	0.0
34.4527	70.1340	0.79	0.03	5.00	5.00	7.412	0.07997	7.45833	2.0
34.4727	70.1340	0.79	0.03	5.00	5.00	7.412	0.07736	7.45836	4.0
34.4927	70.1340	0.79	0.03	5.00	5.00	7.412	0.07476	7.45838	0.0
34.5127	70.1340	0.79	0.03	5.00	5.00	7.412	0.07216	7.45841	0.0
34.5327	70.1340	0.79	0.03	5.00	5.00	7.412	0.06955	7.45843	2.0
34.5527	70.1340	0.79	0.03	5.00	5.00	7.412	0.06695	7.45846	0.0
34.5727	70.1340	0.79	0.03	5.00	5.00	7.412	0.06435	7.45848	0.0
34.5927	70.1340	0.79	0.03	5.00	5.00	7.412	0.06174	7.45850	0.0
34.6127	70.1340	0.79	0.03	5.00	5.00	7.412	0.05914	7.45852	4.0
34.6327	70.1340	0.79	0.03	5.00	5.00	7.412	0.05654	7.45854	4.0
34.6527	70.1340	0.79	0.03	5.00	5.00	7.412	0.05393	7.45856	4.0
34.6727	70.1340	0.79	0.03	5.00	5.00	7.412	0.05133	7.45858	4.0
34.6927	70.1340	0.79	0.03	5.00	5.00	7.412	0.04873	7.45860	2.0
34.7127	70.1340	0.79	0.03	5.00	5.00	7.412	0.04612	7.45862	0.0
34.7327	70.1340	0.79	0.03	5.00	5.00	7.412	0.04352	7.45863	2.0
34.7527	70.1340	0.79	0.03	5.00	5.00	7.412	0.04092	7.45865	0.0
34.7727	70.1340	0.79	0.03	5.00	5.00	7.412	0.03831	7.45866	0.0
34.7927	70.1340	0.79	0.03	5.00	5.00	7.412	0.03571	7.45867	2.0
34.8127	70.1340	0.79	0.03	5.00	5.00	7.412	0.03310	7.45868	0.0
34.8327	70.1340	0.79	0.03	5.00	5.00	7.412	0.03050	7.45870	0.0
34.8527	70.1340	0.79	0.03	5.00	5.00	7.412	0.02790	7.45871	2.0
34.8727	70.1340	0.79	0.03	5.00	5.00	7.412	0.02529	7.45871	0.0
34.8927	70.1340	0.79	0.03	5.00	5.00	7.412	0.02269	7.45872	0.0
34.9127	70.1340	0.79	0.03	5.00	5.00	7.412	0.02009	7.45873	2.0
34.9327	70.1340	0.79	0.03	5.00	5.00	7.412	0.01748	7.45874	2.0
34.9527	70.1340	0.79	0.03	5.00	5.00	7.412	0.01488	7.45874	2.0
34.9727	70.1340	0.79	0.03	5.00	5.00	7.412	0.01228	7.45875	0.0
34.9927	70.1340	0.79	0.03	5.00	5.00	7.412	0.00967	7.45875	4.0
35.0127	70.1340	0.79	0.03	5.00	5.00	7.412	0.00707	7.45875	0.0
35.0327	70.1340	0.79	0.03	5.00	5.00	7.412	0.00447	7.45876	0.0
35.0527	70.1340	0.79	0.03	5.00	5.00	7.412	0.00186	7.45876	0.0
35.0727	70.1340	0.79	0.03	5.00	5.00	7.412	-0.00074	7.45876	0.0
35.0927	70.1340	0.79	0.03	5.00	5.00	7.412	-0.00335	7.45876	2.0
35.1127	70.1340	0.79	0.03	5.00	5.00	7.412	-0.00595	7.45876	0.0
35.1327	70.1340	0.79	0.03	5.00	5.00	7.412	-0.00855	7.45875	2.0
35.1527	70.1340	0.79	0.03	5.00	5.00	7.412	-0.01116	7.45875	0.0
35.1727	70.1340	0.79	0.03	5.00	5.00	7.412	-0.01376	7.45875	0.0
35.1927	70.1340	0.79	0.03	5.00	5.00	7.412	-0.01636	7.45874	2.0
35.2127	70.1340	0.79	0.03	5.00	5.00	7.412	-0.01897	7.45873	2.0
35.2327	70.1340	0.79	0.03	5.00	5.00	7.412	-0.02157	7.45873	0.0
35.2527	70.1340	0.79	0.03	5.00	5.00	7.412	-0.02417	7.45872	0.0
35.2727	70.1340	0.79	0.03	5.00	5.00	7.412	-0.02678	7.45871	0.0
35.2927	70.1340	0.79	0.03	5.00	5.00	7.412	-0.02938	7.45870	8.0
35.3127	70.1340	0.79	0.03	5.00	5.00	7.412	-0.03199	7.45869	0.0
35.3327	70.1340	0.79	0.03	5.00	5.00	7.412	-0.03459	7.45868	0.0
35.3527	70.1340	0.79	0.03	5.00	5.00	7.412	-0.03719	7.45867	0.0
35.3727	70.1340	0.79	0.03	5.00	5.00	7.412	-0.03980	7.45865	2.0
35.3927	70.1340	0.79	0.03	5.00	5.00	7.412	-0.04240	7.45864	2.0
35.4127	70.1340	0.79	0.03	5.00	5.00	7.412	-0.04500	7.45862	2.0
35.4327	70.1340	0.79	0.03	5.00	5.00	7.412	-0.04761	7.45861	6.0
35.4527	70.1340	0.79	0.03	5.00	5.00	7.412	-0.05021	7.45859	6.0
35.4727	70.1340	0.79	0.03	5.00	5.00	7.412	-0.05281	7.45857	2.0
35.4927	70.1340	0.79	0.03	5.00	5.00	7.412	-0.05542	7.45855	0.0
35.5127	70.1340	0.79	0.03	5.00	5.00	7.412	-0.05802	7.45853	2.0
35.5327	70.1340	0.79	0.03	5.00	5.00	7.412	-0.06062	7.45851	2.0
35.5527	70.1340	0.79	0.03	5.00	5.00	7.412	-0.06323	7.45849	0.0
35.5727	70.1340	0.79	0.03	5.00	5.00	7.412	-0.06583	7.45847	2.0
35.5927	70.1340	0.79	0.03	5.00	5.00	7.412	-0.06843	7.45844	0.0
35.6127	70.1340	0.79	0.03	5.00	5.00	7.412	-0.07104	7.45842	2.0
35.6327	70.1340	0.79	0.03	5.00	5.00	7.412	-0.07364	7.45839	0.0
35.6527	70.1340	0.79	0.03	5.00	5.00	7.412	-0.07625	7.45837	0.0
35.6727	70.1340	0.79	0.03	5.00	5.00	7.412	-0.07885	7.45834	0.0
35.6927	70.1340	0.79	0.03	5.00	5.00	7.412	-0.08145	7.45831	0.0
35.7127	70.1340	0.79	0.03	5.00	5.00	7.412	-0.08406	7.45828	0.0
35.7327	70.1340	0.79	0.03	5.00	5.00	7.412	-0.08666	7.45825	2.0
35.7527	70.1340	0.79	0.03	5.00	5.00	7.412	-0.08926	7.45822	2.0
35.7727	70.1340	0.79	0.03	5.00	5.00	7.412	-0.09187	7.45819	0.0
35.7927	70.1340	0.79	0.03	5.00	5.00	7.412	-0.09447	7.45816	2.0
35.8127	70.1340	0.79	0.03	5.00	5.00	7.412	-0.09707	7.45813	0.0
35.8327	70.1340	0.79	0.03	5.00	5.00	7.412	-0.09968	7.45809	0.0
35.8527	70.1340	0.79	0.03	5.00	5.00	7.412	-0.10228	7.45806	6.0
35.8727	70.1340	0.79	0.03	5.00	5.00	7.412	-0.10488	7.45802	2.0
35.8927	70.1340	0.79	0.03	5.00	5.00	7.412	-0.10749	7.45798	0.0
35.9127	70.1340	0.79	0.03	5.00	5.00	7.412	-0.11009	7.45795	0.0
35.9327	70.1340	0.79	0.03	5.00	5.00	7.412	-0.11269	7.45791	0.0
35.9527	70.1340	0.79	0.03	5.00	5.00	7.412	-0.11530	7.45787	0.0
35.9727	70.1340	0.79	0.03	5.00	5.00	7.412	-0.11790	7.45783	0.0
35.9927	70.1340	0.79	0.03	5.00	5.00	7.412	-0.12050	7.45778	0.0
36.0127	70.1340	0.79	0.03	5.00	5.00	7.412	-0.12311	7.45774	2.0
36.0327	70.1340	0.79	0.03	5.00	5.00	7.412	-0.12571	7.45770	2.0
36.0527	70.1340	0.79	0.03	5.00	5.00	7.412	-0.12831	7.45765	0.0
36.0727	70.1340	0.79	0.03	5.00	5.00	7.412	-0.13092	7.45761	0.0
36.0927	70.1340	0.79	0.03	5.00	5.00	7.412	-0.13352	7.45756	0.0
36.1127	70.1340	0.79	0.03	5.00	5.00	7.412	-0.13612	7.45752	0.0
36.1327	70.1340	0.79	0.03	5.00	5.00	7.412	-0.13872	7.45747	2.0
36.1527	70.1340	0.79	0.03	5.00	5.00	7.412	-0.14133	7.45742	0.0
36.1727	70.1340	0.79	0.03	5.00	5.00	7.412	-0.14393	7.45737	2.0
36.1927	70.1340	0.79	0.03	5.00	5.00	7.412	-0.14653	7.45732	2.0