File: Data/113xx/Omega/2.0deg-2.0deg-rsm-3h10mins_11354-as-grown_224_w-scans.dat
# filename: 2.0deg-2.0deg-rsm-3h10mins_11354-as-grown_224.dat
# reflection: (004)
# type: rotated into a series of omega scans
# x-axis: Omega_2Theta
#
# Omega	2Theta	Phi  	Chi   	X    	Y    	Z    	q_para	q_perp	Intensity
# [deg]	[deg] 	[deg]	[deg] 	[mm] 	[mm] 	[mm] 	[nm-1]	[nm-1]	[counts/s]
5.8865	85.0720	1.74	0.08	10.00	20.00	7.278	5.23898	7.04157	0.0
5.9065	85.0720	1.74	0.08	10.00	20.00	7.278	5.23652	7.04340	0.0
5.9265	85.0720	1.74	0.08	10.00	20.00	7.278	5.23406	7.04523	0.0
5.9465	85.0720	1.74	0.08	10.00	20.00	7.278	5.23160	7.04706	0.0
5.9665	85.0720	1.74	0.08	10.00	20.00	7.278	5.22914	7.04888	4.0
5.9865	85.0720	1.74	0.08	10.00	20.00	7.278	5.22668	7.05071	2.0
6.0065	85.0720	1.74	0.08	10.00	20.00	7.278	5.22422	7.05253	0.0
6.0265	85.0720	1.74	0.08	10.00	20.00	7.278	5.22176	7.05435	4.0
6.0465	85.0720	1.74	0.08	10.00	20.00	7.278	5.21929	7.05618	2.0
6.0665	85.0720	1.74	0.08	10.00	20.00	7.278	5.21683	7.05800	0.0
6.0865	85.0720	1.74	0.08	10.00	20.00	7.278	5.21437	7.05982	2.0
6.1065	85.0720	1.74	0.08	10.00	20.00	7.278	5.21190	7.06164	2.0
6.1265	85.0720	1.74	0.08	10.00	20.00	7.278	5.20944	7.06346	2.0
6.1465	85.0720	1.74	0.08	10.00	20.00	7.278	5.20697	7.06527	4.0
6.1665	85.0720	1.74	0.08	10.00	20.00	7.278	5.20450	7.06709	4.0
6.1865	85.0720	1.74	0.08	10.00	20.00	7.278	5.20204	7.06891	2.0
6.2065	85.0720	1.74	0.08	10.00	20.00	7.278	5.19957	7.07072	4.0
6.2265	85.0720	1.74	0.08	10.00	20.00	7.278	5.19710	7.07254	4.0
6.2465	85.0720	1.74	0.08	10.00	20.00	7.278	5.19463	7.07435	0.0
6.2665	85.0720	1.74	0.08	10.00	20.00	7.278	5.19216	7.07616	6.0
6.2865	85.0720	1.74	0.08	10.00	20.00	7.278	5.18969	7.07798	4.0
6.3065	85.0720	1.74	0.08	10.00	20.00	7.278	5.18722	7.07979	6.0
6.3265	85.0720	1.74	0.08	10.00	20.00	7.278	5.18475	7.08160	2.0
6.3465	85.0720	1.74	0.08	10.00	20.00	7.278	5.18228	7.08341	4.0
6.3665	85.0720	1.74	0.08	10.00	20.00	7.278	5.17980	7.08522	2.0
6.3865	85.0720	1.74	0.08	10.00	20.00	7.278	5.17733	7.08702	2.0
6.4065	85.0720	1.74	0.08	10.00	20.00	7.278	5.17486	7.08883	2.0
6.4265	85.0720	1.74	0.08	10.00	20.00	7.278	5.17238	7.09064	2.0
6.4465	85.0720	1.74	0.08	10.00	20.00	7.278	5.16991	7.09244	4.0
6.4665	85.0720	1.74	0.08	10.00	20.00	7.278	5.16743	7.09424	6.0
6.4865	85.0720	1.74	0.08	10.00	20.00	7.278	5.16495	7.09605	0.0
6.5065	85.0720	1.74	0.08	10.00	20.00	7.278	5.16248	7.09785	0.0
6.5265	85.0720	1.74	0.08	10.00	20.00	7.278	5.16000	7.09965	0.0
6.5465	85.0720	1.74	0.08	10.00	20.00	7.278	5.15752	7.10145	0.0
6.5665	85.0720	1.74	0.08	10.00	20.00	7.278	5.15504	7.10325	0.0
6.5865	85.0720	1.74	0.08	10.00	20.00	7.278	5.15256	7.10505	0.0
6.6065	85.0720	1.74	0.08	10.00	20.00	7.278	5.15008	7.10685	2.0
6.6265	85.0720	1.74	0.08	10.00	20.00	7.278	5.14760	7.10865	0.0
6.6465	85.0720	1.74	0.08	10.00	20.00	7.278	5.14512	7.11044	0.0
6.6665	85.0720	1.74	0.08	10.00	20.00	7.278	5.14264	7.11224	2.0
6.6865	85.0720	1.74	0.08	10.00	20.00	7.278	5.14015	7.11403	4.0
6.7065	85.0720	1.74	0.08	10.00	20.00	7.278	5.13767	7.11583	2.0
6.7265	85.0720	1.74	0.08	10.00	20.00	7.278	5.13518	7.11762	4.0
6.7465	85.0720	1.74	0.08	10.00	20.00	7.278	5.13270	7.11941	0.0
6.7665	85.0720	1.74	0.08	10.00	20.00	7.278	5.13021	7.12120	2.0
6.7865	85.0720	1.74	0.08	10.00	20.00	7.278	5.12773	7.12299	2.0
6.8065	85.0720	1.74	0.08	10.00	20.00	7.278	5.12524	7.12478	2.0
6.8265	85.0720	1.74	0.08	10.00	20.00	7.278	5.12275	7.12657	0.0
6.8465	85.0720	1.74	0.08	10.00	20.00	7.278	5.12027	7.12836	4.0
6.8665	85.0720	1.74	0.08	10.00	20.00	7.278	5.11778	7.13015	6.0
6.8865	85.0720	1.74	0.08	10.00	20.00	7.278	5.11529	7.13193	0.0
6.9065	85.0720	1.74	0.08	10.00	20.00	7.278	5.11280	7.13372	8.0
6.9265	85.0720	1.74	0.08	10.00	20.00	7.278	5.11031	7.13550	2.0
6.9465	85.0720	1.74	0.08	10.00	20.00	7.278	5.10782	7.13729	0.0
6.9665	85.0720	1.74	0.08	10.00	20.00	7.278	5.10533	7.13907	0.0
6.9865	85.0720	1.74	0.08	10.00	20.00	7.278	5.10283	7.14085	0.0
7.0065	85.0720	1.74	0.08	10.00	20.00	7.278	5.10034	7.14263	2.0
7.0265	85.0720	1.74	0.08	10.00	20.00	7.278	5.09785	7.14441	2.0
7.0465	85.0720	1.74	0.08	10.00	20.00	7.278	5.09535	7.14619	0.0
7.0665	85.0720	1.74	0.08	10.00	20.00	7.278	5.09286	7.14797	4.0
7.0865	85.0720	1.74	0.08	10.00	20.00	7.278	5.09036	7.14975	4.0
7.1065	85.0720	1.74	0.08	10.00	20.00	7.278	5.08787	7.15152	0.0
7.1265	85.0720	1.74	0.08	10.00	20.00	7.278	5.08537	7.15330	2.0
7.1465	85.0720	1.74	0.08	10.00	20.00	7.278	5.08287	7.15507	0.0
7.1665	85.0720	1.74	0.08	10.00	20.00	7.278	5.08037	7.15685	4.0
7.1865	85.0720	1.74	0.08	10.00	20.00	7.278	5.07788	7.15862	4.0
7.2065	85.0720	1.74	0.08	10.00	20.00	7.278	5.07538	7.16039	4.0
7.2265	85.0720	1.74	0.08	10.00	20.00	7.278	5.07288	7.16216	0.0
7.2465	85.0720	1.74	0.08	10.00	20.00	7.278	5.07038	7.16393	4.0
7.2665	85.0720	1.74	0.08	10.00	20.00	7.278	5.06788	7.16570	2.0
7.2865	85.0720	1.74	0.08	10.00	20.00	7.278	5.06537	7.16747	2.0
7.3065	85.0720	1.74	0.08	10.00	20.00	7.278	5.06287	7.16924	2.0
7.3265	85.0720	1.74	0.08	10.00	20.00	7.278	5.06037	7.17101	0.0
7.3465	85.0720	1.74	0.08	10.00	20.00	7.278	5.05787	7.17277	2.0
7.3665	85.0720	1.74	0.08	10.00	20.00	7.278	5.05536	7.17454	0.0
7.3865	85.0720	1.74	0.08	10.00	20.00	7.278	5.05286	7.17630	0.0
7.4065	85.0720	1.74	0.08	10.00	20.00	7.278	5.05035	7.17806	0.0
7.4265	85.0720	1.74	0.08	10.00	20.00	7.278	5.04785	7.17983	2.0
7.4465	85.0720	1.74	0.08	10.00	20.00	7.278	5.04534	7.18159	0.0
7.4665	85.0720	1.74	0.08	10.00	20.00	7.278	5.04283	7.18335	2.0
7.4865	85.0720	1.74	0.08	10.00	20.00	7.278	5.04032	7.18511	0.0
7.5065	85.0720	1.74	0.08	10.00	20.00	7.278	5.03782	7.18687	0.0
7.5265	85.0720	1.74	0.08	10.00	20.00	7.278	5.03531	7.18863	2.0
7.5465	85.0720	1.74	0.08	10.00	20.00	7.278	5.03280	7.19038	0.0
7.5665	85.0720	1.74	0.08	10.00	20.00	7.278	5.03029	7.19214	0.0
7.5865	85.0720	1.74	0.08	10.00	20.00	7.278	5.02778	7.19389	4.0
7.6065	85.0720	1.74	0.08	10.00	20.00	7.278	5.02526	7.19565	6.0
7.6265	85.0720	1.74	0.08	10.00	20.00	7.278	5.02275	7.19740	0.0
7.6465	85.0720	1.74	0.08	10.00	20.00	7.278	5.02024	7.19916	0.0
7.6665	85.0720	1.74	0.08	10.00	20.00	7.278	5.01773	7.20091	0.0
7.6865	85.0720	1.74	0.08	10.00	20.00	7.278	5.01521	7.20266	0.0
7.7065	85.0720	1.74	0.08	10.00	20.00	7.278	5.01270	7.20441	2.0
7.7265	85.0720	1.74	0.08	10.00	20.00	7.278	5.01018	7.20616	2.0
7.7465	85.0720	1.74	0.08	10.00	20.00	7.278	5.00767	7.20791	4.0
7.7665	85.0720	1.74	0.08	10.00	20.00	7.278	5.00515	7.20965	2.0
7.7865	85.0720	1.74	0.08	10.00	20.00	7.278	5.00263	7.21140	2.0
7.8065	85.0720	1.74	0.08	10.00	20.00	7.278	5.00012	7.21315	2.0
7.8265	85.0720	1.74	0.08	10.00	20.00	7.278	4.99760	7.21489	0.0
7.8465	85.0720	1.74	0.08	10.00	20.00	7.278	4.99508	7.21664	0.0
7.8665	85.0720	1.74	0.08	10.00	20.00	7.278	4.99256	7.21838	0.0
7.8865	85.0720	1.74	0.08	10.00	20.00	7.278	4.99004	7.22012	2.0

5.8965	85.0920	1.74	0.08	10.00	20.00	7.278	5.23997	7.04291	0.0
5.9165	85.0920	1.74	0.08	10.00	20.00	7.278	5.23752	7.04474	0.0
5.9365	85.0920	1.74	0.08	10.00	20.00	7.278	5.23506	7.04657	0.0
5.9565	85.0920	1.74	0.08	10.00	20.00	7.278	5.23260	7.04840	0.0
5.9765	85.0920	1.74	0.08	10.00	20.00	7.278	5.23014	7.05022	2.0
5.9965	85.0920	1.74	0.08	10.00	20.00	7.278	5.22767	7.05205	0.0
6.0165	85.0920	1.74	0.08	10.00	20.00	7.278	5.22521	7.05387	0.0
6.0365	85.0920	1.74	0.08	10.00	20.00	7.278	5.22275	7.05569	4.0
6.0565	85.0920	1.74	0.08	10.00	20.00	7.278	5.22029	7.05752	0.0
6.0765	85.0920	1.74	0.08	10.00	20.00	7.278	5.21782	7.05934	0.0
6.0965	85.0920	1.74	0.08	10.00	20.00	7.278	5.21536	7.06116	0.0
6.1165	85.0920	1.74	0.08	10.00	20.00	7.278	5.21289	7.06298	0.0
6.1365	85.0920	1.74	0.08	10.00	20.00	7.278	5.21043	7.06480	2.0
6.1565	85.0920	1.74	0.08	10.00	20.00	7.278	5.20796	7.06662	2.0
6.1765	85.0920	1.74	0.08	10.00	20.00	7.278	5.20549	7.06844	2.0
6.1965	85.0920	1.74	0.08	10.00	20.00	7.278	5.20303	7.07025	2.0
6.2165	85.0920	1.74	0.08	10.00	20.00	7.278	5.20056	7.07207	4.0
6.2365	85.0920	1.74	0.08	10.00	20.00	7.278	5.19809	7.07388	0.0
6.2565	85.0920	1.74	0.08	10.00	20.00	7.278	5.19562	7.07570	2.0
6.2765	85.0920	1.74	0.08	10.00	20.00	7.278	5.19315	7.07751	0.0
6.2965	85.0920	1.74	0.08	10.00	20.00	7.278	5.19068	7.07932	0.0
6.3165	85.0920	1.74	0.08	10.00	20.00	7.278	5.18821	7.08113	2.0
6.3365	85.0920	1.74	0.08	10.00	20.00	7.278	5.18574	7.08294	0.0
6.3565	85.0920	1.74	0.08	10.00	20.00	7.278	5.18326	7.08475	2.0
6.3765	85.0920	1.74	0.08	10.00	20.00	7.278	5.18079	7.08656	0.0
6.3965	85.0920	1.74	0.08	10.00	20.00	7.278	5.17832	7.08837	2.0
6.4165	85.0920	1.74	0.08	10.00	20.00	7.278	5.17584	7.09018	2.0
6.4365	85.0920	1.74	0.08	10.00	20.00	7.278	5.17337	7.09198	2.0
6.4565	85.0920	1.74	0.08	10.00	20.00	7.278	5.17089	7.09379	2.0
6.4765	85.0920	1.74	0.08	10.00	20.00	7.278	5.16841	7.09559	0.0
6.4965	85.0920	1.74	0.08	10.00	20.00	7.278	5.16594	7.09740	2.0
6.5165	85.0920	1.74	0.08	10.00	20.00	7.278	5.16346	7.09920	2.0
6.5365	85.0920	1.74	0.08	10.00	20.00	7.278	5.16098	7.10100	0.0
6.5565	85.0920	1.74	0.08	10.00	20.00	7.278	5.15850	7.10280	2.0
6.5765	85.0920	1.74	0.08	10.00	20.00	7.278	5.15602	7.10460	4.0
6.5965	85.0920	1.74	0.08	10.00	20.00	7.278	5.15354	7.10640	0.0
6.6165	85.0920	1.74	0.08	10.00	20.00	7.278	5.15106	7.10820	0.0
6.6365	85.0920	1.74	0.08	10.00	20.00	7.278	5.14858	7.11000	4.0
6.6565	85.0920	1.74	0.08	10.00	20.00	7.278	5.14610	7.11180	0.0
6.6765	85.0920	1.74	0.08	10.00	20.00	7.278	5.14361	7.11359	6.0
6.6965	85.0920	1.74	0.08	10.00	20.00	7.278	5.14113	7.11539	2.0
6.7165	85.0920	1.74	0.08	10.00	20.00	7.278	5.13865	7.11718	0.0
6.7365	85.0920	1.74	0.08	10.00	20.00	7.278	5.13616	7.11897	0.0
6.7565	85.0920	1.74	0.08	10.00	20.00	7.278	5.13368	7.12077	2.0
6.7765	85.0920	1.74	0.08	10.00	20.00	7.278	5.13119	7.12256	2.0
6.7965	85.0920	1.74	0.08	10.00	20.00	7.278	5.12870	7.12435	0.0
6.8165	85.0920	1.74	0.08	10.00	20.00	7.278	5.12622	7.12614	2.0
6.8365	85.0920	1.74	0.08	10.00	20.00	7.278	5.12373	7.12793	0.0
6.8565	85.0920	1.74	0.08	10.00	20.00	7.278	5.12124	7.12972	2.0
6.8765	85.0920	1.74	0.08	10.00	20.00	7.278	5.11875	7.13150	2.0
6.8965	85.0920	1.74	0.08	10.00	20.00	7.278	5.11626	7.13329	0.0
6.9165	85.0920	1.74	0.08	10.00	20.00	7.278	5.11377	7.13508	4.0
6.9365	85.0920	1.74	0.08	10.00	20.00	7.278	5.11128	7.13686	0.0
6.9565	85.0920	1.74	0.08	10.00	20.00	7.278	5.10879	7.13864	4.0
6.9765	85.0920	1.74	0.08	10.00	20.00	7.278	5.10630	7.14043	2.0
6.9965	85.0920	1.74	0.08	10.00	20.00	7.278	5.10380	7.14221	4.0
7.0165	85.0920	1.74	0.08	10.00	20.00	7.278	5.10131	7.14399	2.0
7.0365	85.0920	1.74	0.08	10.00	20.00	7.278	5.09882	7.14577	2.0
7.0565	85.0920	1.74	0.08	10.00	20.00	7.278	5.09632	7.14755	0.0
7.0765	85.0920	1.74	0.08	10.00	20.00	7.278	5.09383	7.14933	0.0
7.0965	85.0920	1.74	0.08	10.00	20.00	7.278	5.09133	7.15111	0.0
7.1165	85.0920	1.74	0.08	10.00	20.00	7.278	5.08883	7.15288	0.0
7.1365	85.0920	1.74	0.08	10.00	20.00	7.278	5.08634	7.15466	2.0
7.1565	85.0920	1.74	0.08	10.00	20.00	7.278	5.08384	7.15643	6.0
7.1765	85.0920	1.74	0.08	10.00	20.00	7.278	5.08134	7.15821	2.0
7.1965	85.0920	1.74	0.08	10.00	20.00	7.278	5.07884	7.15998	0.0
7.2165	85.0920	1.74	0.08	10.00	20.00	7.278	5.07634	7.16175	2.0
7.2365	85.0920	1.74	0.08	10.00	20.00	7.278	5.07384	7.16352	0.0
7.2565	85.0920	1.74	0.08	10.00	20.00	7.278	5.07134	7.16530	4.0
7.2765	85.0920	1.74	0.08	10.00	20.00	7.278	5.06884	7.16706	4.0
7.2965	85.0920	1.74	0.08	10.00	20.00	7.278	5.06634	7.16883	0.0
7.3165	85.0920	1.74	0.08	10.00	20.00	7.278	5.06383	7.17060	0.0
7.3365	85.0920	1.74	0.08	10.00	20.00	7.278	5.06133	7.17237	0.0
7.3565	85.0920	1.74	0.08	10.00	20.00	7.278	5.05883	7.17414	0.0
7.3765	85.0920	1.74	0.08	10.00	20.00	7.278	5.05632	7.17590	2.0
7.3965	85.0920	1.74	0.08	10.00	20.00	7.278	5.05382	7.17767	0.0
7.4165	85.0920	1.74	0.08	10.00	20.00	7.278	5.05131	7.17943	0.0
7.4365	85.0920	1.74	0.08	10.00	20.00	7.278	5.04881	7.18119	0.0
7.4565	85.0920	1.74	0.08	10.00	20.00	7.278	5.04630	7.18295	2.0
7.4765	85.0920	1.74	0.08	10.00	20.00	7.278	5.04379	7.18471	2.0
7.4965	85.0920	1.74	0.08	10.00	20.00	7.278	5.04128	7.18648	2.0
7.5165	85.0920	1.74	0.08	10.00	20.00	7.278	5.03877	7.18823	2.0
7.5365	85.0920	1.74	0.08	10.00	20.00	7.278	5.03626	7.18999	2.0
7.5565	85.0920	1.74	0.08	10.00	20.00	7.278	5.03375	7.19175	2.0
7.5765	85.0920	1.74	0.08	10.00	20.00	7.278	5.03124	7.19351	4.0
7.5965	85.0920	1.74	0.08	10.00	20.00	7.278	5.02873	7.19526	4.0
7.6165	85.0920	1.74	0.08	10.00	20.00	7.278	5.02622	7.19702	0.0
7.6365	85.0920	1.74	0.08	10.00	20.00	7.278	5.02371	7.19877	0.0
7.6565	85.0920	1.74	0.08	10.00	20.00	7.278	5.02119	7.20052	0.0
7.6765	85.0920	1.74	0.08	10.00	20.00	7.278	5.01868	7.20228	2.0
7.6965	85.0920	1.74	0.08	10.00	20.00	7.278	5.01617	7.20403	0.0
7.7165	85.0920	1.74	0.08	10.00	20.00	7.278	5.01365	7.20578	0.0
7.7365	85.0920	1.74	0.08	10.00	20.00	7.278	5.01114	7.20753	2.0
7.7565	85.0920	1.74	0.08	10.00	20.00	7.278	5.00862	7.20928	2.0
7.7765	85.0920	1.74	0.08	10.00	20.00	7.278	5.00610	7.21103	0.0
7.7965	85.0920	1.74	0.08	10.00	20.00	7.278	5.00359	7.21277	2.0
7.8165	85.0920	1.74	0.08	10.00	20.00	7.278	5.00107	7.21452	2.0
7.8365	85.0920	1.74	0.08	10.00	20.00	7.278	4.99855	7.21626	0.0
7.8565	85.0920	1.74	0.08	10.00	20.00	7.278	4.99603	7.21801	2.0
7.8765	85.0920	1.74	0.08	10.00	20.00	7.278	4.99351	7.21975	0.0
7.8965	85.0920	1.74	0.08	10.00	20.00	7.278	4.99099	7.22149	2.0

5.9065	85.1120	1.74	0.08	10.00	20.00	7.278	5.24097	7.04425	2.0
5.9265	85.1120	1.74	0.08	10.00	20.00	7.278	5.23851	7.04608	4.0
5.9465	85.1120	1.74	0.08	10.00	20.00	7.278	5.23605	7.04791	2.0
5.9665	85.1120	1.74	0.08	10.00	20.00	7.278	5.23359	7.04974	0.0
5.9865	85.1120	1.74	0.08	10.00	20.00	7.278	5.23113	7.05156	4.0
6.0065	85.1120	1.74	0.08	10.00	20.00	7.278	5.22867	7.05339	0.0
6.0265	85.1120	1.74	0.08	10.00	20.00	7.278	5.22621	7.05521	2.0
6.0465	85.1120	1.74	0.08	10.00	20.00	7.278	5.22374	7.05704	2.0
6.0665	85.1120	1.74	0.08	10.00	20.00	7.278	5.22128	7.05886	0.0
6.0865	85.1120	1.74	0.08	10.00	20.00	7.278	5.21882	7.06068	0.0
6.1065	85.1120	1.74	0.08	10.00	20.00	7.278	5.21635	7.06250	6.0
6.1265	85.1120	1.74	0.08	10.00	20.00	7.278	5.21388	7.06432	2.0
6.1465	85.1120	1.74	0.08	10.00	20.00	7.278	5.21142	7.06614	2.0
6.1665	85.1120	1.74	0.08	10.00	20.00	7.278	5.20895	7.06796	0.0
6.1865	85.1120	1.74	0.08	10.00	20.00	7.278	5.20648	7.06978	0.0
6.2065	85.1120	1.74	0.08	10.00	20.00	7.278	5.20402	7.07160	2.0
6.2265	85.1120	1.74	0.08	10.00	20.00	7.278	5.20155	7.07341	2.0
6.2465	85.1120	1.74	0.08	10.00	20.00	7.278	5.19908	7.07523	0.0
6.2665	85.1120	1.74	0.08	10.00	20.00	7.278	5.19661	7.07704	2.0
6.2865	85.1120	1.74	0.08	10.00	20.00	7.278	5.19414	7.07886	2.0
6.3065	85.1120	1.74	0.08	10.00	20.00	7.278	5.19167	7.08067	2.0
6.3265	85.1120	1.74	0.08	10.00	20.00	7.278	5.18919	7.08248	4.0
6.3465	85.1120	1.74	0.08	10.00	20.00	7.278	5.18672	7.08429	2.0
6.3665	85.1120	1.74	0.08	10.00	20.00	7.278	5.18425	7.08610	2.0
6.3865	85.1120	1.74	0.08	10.00	20.00	7.278	5.18177	7.08791	4.0
6.4065	85.1120	1.74	0.08	10.00	20.00	7.278	5.17930	7.08972	2.0
6.4265	85.1120	1.74	0.08	10.00	20.00	7.278	5.17682	7.09153	0.0
6.4465	85.1120	1.74	0.08	10.00	20.00	7.278	5.17435	7.09333	0.0
6.4665	85.1120	1.74	0.08	10.00	20.00	7.278	5.17187	7.09514	2.0
6.4865	85.1120	1.74	0.08	10.00	20.00	7.278	5.16940	7.09694	0.0
6.5065	85.1120	1.74	0.08	10.00	20.00	7.278	5.16692	7.09875	2.0
6.5265	85.1120	1.74	0.08	10.00	20.00	7.278	5.16444	7.10055	2.0
6.5465	85.1120	1.74	0.08	10.00	20.00	7.278	5.16196	7.10235	2.0
6.5665	85.1120	1.74	0.08	10.00	20.00	7.278	5.15948	7.10415	4.0
6.5865	85.1120	1.74	0.08	10.00	20.00	7.278	5.15700	7.10596	0.0
6.6065	85.1120	1.74	0.08	10.00	20.00	7.278	5.15452	7.10775	0.0
6.6265	85.1120	1.74	0.08	10.00	20.00	7.278	5.15204	7.10955	6.0
6.6465	85.1120	1.74	0.08	10.00	20.00	7.278	5.14956	7.11135	4.0
6.6665	85.1120	1.74	0.08	10.00	20.00	7.278	5.14707	7.11315	4.0
6.6865	85.1120	1.74	0.08	10.00	20.00	7.278	5.14459	7.11494	4.0
6.7065	85.1120	1.74	0.08	10.00	20.00	7.278	5.14211	7.11674	0.0
6.7265	85.1120	1.74	0.08	10.00	20.00	7.278	5.13962	7.11853	2.0
6.7465	85.1120	1.74	0.08	10.00	20.00	7.278	5.13714	7.12033	0.0
6.7665	85.1120	1.74	0.08	10.00	20.00	7.278	5.13465	7.12212	0.0
6.7865	85.1120	1.74	0.08	10.00	20.00	7.278	5.13217	7.12391	0.0
6.8065	85.1120	1.74	0.08	10.00	20.00	7.278	5.12968	7.12570	2.0
6.8265	85.1120	1.74	0.08	10.00	20.00	7.278	5.12719	7.12749	0.0
6.8465	85.1120	1.74	0.08	10.00	20.00	7.278	5.12470	7.12928	0.0
6.8665	85.1120	1.74	0.08	10.00	20.00	7.278	5.12221	7.13107	6.0
6.8865	85.1120	1.74	0.08	10.00	20.00	7.278	5.11972	7.13286	0.0
6.9065	85.1120	1.74	0.08	10.00	20.00	7.278	5.11723	7.13465	0.0
6.9265	85.1120	1.74	0.08	10.00	20.00	7.278	5.11474	7.13643	2.0
6.9465	85.1120	1.74	0.08	10.00	20.00	7.278	5.11225	7.13822	2.0
6.9665	85.1120	1.74	0.08	10.00	20.00	7.278	5.10976	7.14000	2.0
6.9865	85.1120	1.74	0.08	10.00	20.00	7.278	5.10727	7.14178	2.0
7.0065	85.1120	1.74	0.08	10.00	20.00	7.278	5.10477	7.14357	2.0
7.0265	85.1120	1.74	0.08	10.00	20.00	7.278	5.10228	7.14535	2.0
7.0465	85.1120	1.74	0.08	10.00	20.00	7.278	5.09979	7.14713	0.0
7.0665	85.1120	1.74	0.08	10.00	20.00	7.278	5.09729	7.14891	6.0
7.0865	85.1120	1.74	0.08	10.00	20.00	7.278	5.09479	7.15069	2.0
7.1065	85.1120	1.74	0.08	10.00	20.00	7.278	5.09230	7.15247	4.0
7.1265	85.1120	1.74	0.08	10.00	20.00	7.278	5.08980	7.15424	2.0
7.1465	85.1120	1.74	0.08	10.00	20.00	7.278	5.08730	7.15602	2.0
7.1665	85.1120	1.74	0.08	10.00	20.00	7.278	5.08481	7.15779	0.0
7.1865	85.1120	1.74	0.08	10.00	20.00	7.278	5.08231	7.15957	2.0
7.2065	85.1120	1.74	0.08	10.00	20.00	7.278	5.07981	7.16134	0.0
7.2265	85.1120	1.74	0.08	10.00	20.00	7.278	5.07731	7.16311	4.0
7.2465	85.1120	1.74	0.08	10.00	20.00	7.278	5.07481	7.16489	4.0
[...]
9.1565	89.0120	1.74	0.08	10.00	20.00	7.278	5.26513	7.42261	0.0
9.1765	89.0120	1.74	0.08	10.00	20.00	7.278	5.26254	7.42444	0.0
9.1965	89.0120	1.74	0.08	10.00	20.00	7.278	5.25995	7.42628	0.0
9.2165	89.0120	1.74	0.08	10.00	20.00	7.278	5.25736	7.42811	0.0
9.2365	89.0120	1.74	0.08	10.00	20.00	7.278	5.25476	7.42995	4.0
9.2565	89.0120	1.74	0.08	10.00	20.00	7.278	5.25217	7.43178	4.0
9.2765	89.0120	1.74	0.08	10.00	20.00	7.278	5.24957	7.43362	0.0
9.2965	89.0120	1.74	0.08	10.00	20.00	7.278	5.24698	7.43545	8.0
9.3165	89.0120	1.74	0.08	10.00	20.00	7.278	5.24438	7.43728	4.0
9.3365	89.0120	1.74	0.08	10.00	20.00	7.278	5.24179	7.43911	0.0
9.3565	89.0120	1.74	0.08	10.00	20.00	7.278	5.23919	7.44094	2.0
9.3765	89.0120	1.74	0.08	10.00	20.00	7.278	5.23659	7.44277	4.0
9.3965	89.0120	1.74	0.08	10.00	20.00	7.278	5.23399	7.44459	0.0
9.4165	89.0120	1.74	0.08	10.00	20.00	7.278	5.23139	7.44642	0.0
9.4365	89.0120	1.74	0.08	10.00	20.00	7.278	5.22879	7.44825	0.0
9.4565	89.0120	1.74	0.08	10.00	20.00	7.278	5.22619	7.45007	2.0
9.4765	89.0120	1.74	0.08	10.00	20.00	7.278	5.22359	7.45190	0.0
9.4965	89.0120	1.74	0.08	10.00	20.00	7.278	5.22099	7.45372	0.0
9.5165	89.0120	1.74	0.08	10.00	20.00	7.278	5.21839	7.45554	2.0
9.5365	89.0120	1.74	0.08	10.00	20.00	7.278	5.21579	7.45736	4.0
9.5565	89.0120	1.74	0.08	10.00	20.00	7.278	5.21318	7.45918	0.0
9.5765	89.0120	1.74	0.08	10.00	20.00	7.278	5.21058	7.46100	0.0
9.5965	89.0120	1.74	0.08	10.00	20.00	7.278	5.20797	7.46282	2.0
9.6165	89.0120	1.74	0.08	10.00	20.00	7.278	5.20537	7.46464	2.0
9.6365	89.0120	1.74	0.08	10.00	20.00	7.278	5.20276	7.46645	0.0
9.6565	89.0120	1.74	0.08	10.00	20.00	7.278	5.20016	7.46827	0.0
9.6765	89.0120	1.74	0.08	10.00	20.00	7.278	5.19755	7.47008	2.0
9.6965	89.0120	1.74	0.08	10.00	20.00	7.278	5.19494	7.47190	2.0
9.7165	89.0120	1.74	0.08	10.00	20.00	7.278	5.19233	7.47371	2.0
9.7365	89.0120	1.74	0.08	10.00	20.00	7.278	5.18972	7.47552	0.0
9.7565	89.0120	1.74	0.08	10.00	20.00	7.278	5.18711	7.47733	0.0
9.7765	89.0120	1.74	0.08	10.00	20.00	7.278	5.18450	7.47914	2.0
9.7965	89.0120	1.74	0.08	10.00	20.00	7.278	5.18189	7.48095	2.0
9.8165	89.0120	1.74	0.08	10.00	20.00	7.278	5.17928	7.48276	2.0
9.8365	89.0120	1.74	0.08	10.00	20.00	7.278	5.17667	7.48457	0.0
9.8565	89.0120	1.74	0.08	10.00	20.00	7.278	5.17406	7.48638	2.0

7.8665	89.0320	1.74	0.08	10.00	20.00	7.278	5.43314	7.30254	2.0
7.8865	89.0320	1.74	0.08	10.00	20.00	7.278	5.43059	7.30444	0.0
7.9065	89.0320	1.74	0.08	10.00	20.00	7.278	5.42804	7.30633	0.0
7.9265	89.0320	1.74	0.08	10.00	20.00	7.278	5.42549	7.30822	2.0
7.9465	89.0320	1.74	0.08	10.00	20.00	7.278	5.42294	7.31012	2.0
7.9665	89.0320	1.74	0.08	10.00	20.00	7.278	5.42039	7.31201	0.0
7.9865	89.0320	1.74	0.08	10.00	20.00	7.278	5.41783	7.31390	0.0
8.0065	89.0320	1.74	0.08	10.00	20.00	7.278	5.41528	7.31579	0.0
8.0265	89.0320	1.74	0.08	10.00	20.00	7.278	5.41273	7.31768	0.0
8.0465	89.0320	1.74	0.08	10.00	20.00	7.278	5.41017	7.31957	2.0
8.0665	89.0320	1.74	0.08	10.00	20.00	7.278	5.40762	7.32146	0.0
8.0865	89.0320	1.74	0.08	10.00	20.00	7.278	5.40506	7.32335	6.0
8.1065	89.0320	1.74	0.08	10.00	20.00	7.278	5.40250	7.32523	4.0
8.1265	89.0320	1.74	0.08	10.00	20.00	7.278	5.39995	7.32712	2.0
8.1465	89.0320	1.74	0.08	10.00	20.00	7.278	5.39739	7.32900	0.0
8.1665	89.0320	1.74	0.08	10.00	20.00	7.278	5.39483	7.33089	4.0
8.1865	89.0320	1.74	0.08	10.00	20.00	7.278	5.39227	7.33277	0.0
8.2065	89.0320	1.74	0.08	10.00	20.00	7.278	5.38971	7.33465	2.0
8.2265	89.0320	1.74	0.08	10.00	20.00	7.278	5.38715	7.33653	2.0
8.2465	89.0320	1.74	0.08	10.00	20.00	7.278	5.38459	7.33841	0.0
8.2665	89.0320	1.74	0.08	10.00	20.00	7.278	5.38203	7.34029	4.0
8.2865	89.0320	1.74	0.08	10.00	20.00	7.278	5.37946	7.34217	0.0
8.3065	89.0320	1.74	0.08	10.00	20.00	7.278	5.37690	7.34405	0.0
8.3265	89.0320	1.74	0.08	10.00	20.00	7.278	5.37434	7.34592	2.0
8.3465	89.0320	1.74	0.08	10.00	20.00	7.278	5.37177	7.34780	2.0
8.3665	89.0320	1.74	0.08	10.00	20.00	7.278	5.36921	7.34967	0.0
8.3865	89.0320	1.74	0.08	10.00	20.00	7.278	5.36664	7.35155	4.0
8.4065	89.0320	1.74	0.08	10.00	20.00	7.278	5.36407	7.35342	4.0
8.4265	89.0320	1.74	0.08	10.00	20.00	7.278	5.36151	7.35529	2.0
8.4465	89.0320	1.74	0.08	10.00	20.00	7.278	5.35894	7.35716	0.0
8.4665	89.0320	1.74	0.08	10.00	20.00	7.278	5.35637	7.35903	0.0
8.4865	89.0320	1.74	0.08	10.00	20.00	7.278	5.35380	7.36090	2.0
8.5065	89.0320	1.74	0.08	10.00	20.00	7.278	5.35123	7.36277	0.0
8.5265	89.0320	1.74	0.08	10.00	20.00	7.278	5.34866	7.36464	0.0
8.5465	89.0320	1.74	0.08	10.00	20.00	7.278	5.34609	7.36651	2.0
8.5665	89.0320	1.74	0.08	10.00	20.00	7.278	5.34352	7.36837	2.0
8.5865	89.0320	1.74	0.08	10.00	20.00	7.278	5.34095	7.37024	2.0
8.6065	89.0320	1.74	0.08	10.00	20.00	7.278	5.33837	7.37210	0.0
8.6265	89.0320	1.74	0.08	10.00	20.00	7.278	5.33580	7.37396	0.0
8.6465	89.0320	1.74	0.08	10.00	20.00	7.278	5.33323	7.37582	6.0
8.6665	89.0320	1.74	0.08	10.00	20.00	7.278	5.33065	7.37769	2.0
8.6865	89.0320	1.74	0.08	10.00	20.00	7.278	5.32807	7.37955	4.0
8.7065	89.0320	1.74	0.08	10.00	20.00	7.278	5.32550	7.38141	4.0
8.7265	89.0320	1.74	0.08	10.00	20.00	7.278	5.32292	7.38326	4.0
8.7465	89.0320	1.74	0.08	10.00	20.00	7.278	5.32034	7.38512	2.0
8.7665	89.0320	1.74	0.08	10.00	20.00	7.278	5.31777	7.38698	2.0
8.7865	89.0320	1.74	0.08	10.00	20.00	7.278	5.31519	7.38883	2.0
8.8065	89.0320	1.74	0.08	10.00	20.00	7.278	5.31261	7.39069	2.0
8.8265	89.0320	1.74	0.08	10.00	20.00	7.278	5.31003	7.39254	0.0
8.8465	89.0320	1.74	0.08	10.00	20.00	7.278	5.30745	7.39440	4.0
8.8665	89.0320	1.74	0.08	10.00	20.00	7.278	5.30486	7.39625	0.0
8.8865	89.0320	1.74	0.08	10.00	20.00	7.278	5.30228	7.39810	0.0
8.9065	89.0320	1.74	0.08	10.00	20.00	7.278	5.29970	7.39995	4.0
8.9265	89.0320	1.74	0.08	10.00	20.00	7.278	5.29712	7.40180	0.0
8.9465	89.0320	1.74	0.08	10.00	20.00	7.278	5.29453	7.40365	2.0
8.9665	89.0320	1.74	0.08	10.00	20.00	7.278	5.29195	7.40550	0.0
8.9865	89.0320	1.74	0.08	10.00	20.00	7.278	5.28936	7.40734	0.0
9.0065	89.0320	1.74	0.08	10.00	20.00	7.278	5.28678	7.40919	4.0
9.0265	89.0320	1.74	0.08	10.00	20.00	7.278	5.28419	7.41103	0.0
9.0465	89.0320	1.74	0.08	10.00	20.00	7.278	5.28160	7.41288	0.0
9.0665	89.0320	1.74	0.08	10.00	20.00	7.278	5.27901	7.41472	2.0
9.0865	89.0320	1.74	0.08	10.00	20.00	7.278	5.27643	7.41656	2.0
9.1065	89.0320	1.74	0.08	10.00	20.00	7.278	5.27384	7.41840	0.0
9.1265	89.0320	1.74	0.08	10.00	20.00	7.278	5.27125	7.42025	2.0
9.1465	89.0320	1.74	0.08	10.00	20.00	7.278	5.26866	7.42208	2.0
9.1665	89.0320	1.74	0.08	10.00	20.00	7.278	5.26607	7.42392	0.0
9.1865	89.0320	1.74	0.08	10.00	20.00	7.278	5.26347	7.42576	0.0
9.2065	89.0320	1.74	0.08	10.00	20.00	7.278	5.26088	7.42760	0.0
9.2265	89.0320	1.74	0.08	10.00	20.00	7.278	5.25829	7.42943	4.0
9.2465	89.0320	1.74	0.08	10.00	20.00	7.278	5.25569	7.43127	0.0
9.2665	89.0320	1.74	0.08	10.00	20.00	7.278	5.25310	7.43310	0.0
9.2865	89.0320	1.74	0.08	10.00	20.00	7.278	5.25051	7.43494	4.0
9.3065	89.0320	1.74	0.08	10.00	20.00	7.278	5.24791	7.43677	0.0
9.3265	89.0320	1.74	0.08	10.00	20.00	7.278	5.24531	7.43860	0.0
9.3465	89.0320	1.74	0.08	10.00	20.00	7.278	5.24272	7.44043	2.0
9.3665	89.0320	1.74	0.08	10.00	20.00	7.278	5.24012	7.44226	4.0
9.3865	89.0320	1.74	0.08	10.00	20.00	7.278	5.23752	7.44409	0.0
9.4065	89.0320	1.74	0.08	10.00	20.00	7.278	5.23492	7.44592	2.0
9.4265	89.0320	1.74	0.08	10.00	20.00	7.278	5.23232	7.44774	6.0
9.4465	89.0320	1.74	0.08	10.00	20.00	7.278	5.22972	7.44957	0.0
9.4665	89.0320	1.74	0.08	10.00	20.00	7.278	5.22712	7.45139	4.0
9.4865	89.0320	1.74	0.08	10.00	20.00	7.278	5.22452	7.45322	2.0
9.5065	89.0320	1.74	0.08	10.00	20.00	7.278	5.22192	7.45504	2.0
9.5265	89.0320	1.74	0.08	10.00	20.00	7.278	5.21932	7.45686	2.0
9.5465	89.0320	1.74	0.08	10.00	20.00	7.278	5.21671	7.45869	2.0
9.5665	89.0320	1.74	0.08	10.00	20.00	7.278	5.21411	7.46051	4.0
9.5865	89.0320	1.74	0.08	10.00	20.00	7.278	5.21150	7.46233	4.0
9.6065	89.0320	1.74	0.08	10.00	20.00	7.278	5.20890	7.46414	4.0
9.6265	89.0320	1.74	0.08	10.00	20.00	7.278	5.20629	7.46596	2.0
9.6465	89.0320	1.74	0.08	10.00	20.00	7.278	5.20369	7.46778	0.0
9.6665	89.0320	1.74	0.08	10.00	20.00	7.278	5.20108	7.46960	0.0
9.6865	89.0320	1.74	0.08	10.00	20.00	7.278	5.19847	7.47141	0.0
9.7065	89.0320	1.74	0.08	10.00	20.00	7.278	5.19586	7.47322	4.0
9.7265	89.0320	1.74	0.08	10.00	20.00	7.278	5.19326	7.47504	0.0
9.7465	89.0320	1.74	0.08	10.00	20.00	7.278	5.19065	7.47685	2.0
9.7665	89.0320	1.74	0.08	10.00	20.00	7.278	5.18804	7.47866	4.0
9.7865	89.0320	1.74	0.08	10.00	20.00	7.278	5.18542	7.48047	0.0
9.8065	89.0320	1.74	0.08	10.00	20.00	7.278	5.18281	7.48228	0.0
9.8265	89.0320	1.74	0.08	10.00	20.00	7.278	5.18020	7.48409	0.0
9.8465	89.0320	1.74	0.08	10.00	20.00	7.278	5.17759	7.48590	0.0
9.8665	89.0320	1.74	0.08	10.00	20.00	7.278	5.17497	7.48770	0.0