File: Data/Omega/1.5deg-2.0deg-rsm-2h30mins_11371-annealed_004_w-scans.dat
# filename: 1.5deg-2.0deg-rsm-2h30mins_11371-annealed_004.dat
# reflection: (004)
# type: rotated into a series of omega scans
# x-axis: Omega_2Theta
#
# Omega	2Theta	Phi  	Chi   	X    	Y    	Z    	q_para	q_perp	Intensity
# [deg]	[deg] 	[deg]	[deg] 	[mm] 	[mm] 	[mm] 	[nm-1]	[nm-1]	[counts/s]
32.5142	66.6594	-0.92	-0.92	0.00	17.53	7.303	0.10152	7.13247	2.0
32.5342	66.6594	-0.92	-0.92	0.00	17.53	7.303	0.09903	7.13250	0.0
32.5542	66.6594	-0.92	-0.92	0.00	17.53	7.303	0.09654	7.13254	2.0
32.5742	66.6594	-0.92	-0.92	0.00	17.53	7.303	0.09406	7.13257	0.0
32.5942	66.6594	-0.92	-0.92	0.00	17.53	7.303	0.09157	7.13260	0.0
32.6142	66.6594	-0.92	-0.92	0.00	17.53	7.303	0.08908	7.13263	0.0
32.6342	66.6594	-0.92	-0.92	0.00	17.53	7.303	0.08659	7.13266	0.0
32.6542	66.6594	-0.92	-0.92	0.00	17.53	7.303	0.08410	7.13269	2.0
32.6742	66.6594	-0.92	-0.92	0.00	17.53	7.303	0.08161	7.13272	0.0
32.6942	66.6594	-0.92	-0.92	0.00	17.53	7.303	0.07912	7.13275	0.0
32.7142	66.6594	-0.92	-0.92	0.00	17.53	7.303	0.07663	7.13278	2.0
32.7342	66.6594	-0.92	-0.92	0.00	17.53	7.303	0.07414	7.13280	0.0
32.7542	66.6594	-0.92	-0.92	0.00	17.53	7.303	0.07165	7.13283	0.0
32.7742	66.6594	-0.92	-0.92	0.00	17.53	7.303	0.06916	7.13285	0.0
32.7942	66.6594	-0.92	-0.92	0.00	17.53	7.303	0.06667	7.13288	0.0
32.8142	66.6594	-0.92	-0.92	0.00	17.53	7.303	0.06418	7.13290	4.0
32.8342	66.6594	-0.92	-0.92	0.00	17.53	7.303	0.06169	7.13292	0.0
32.8542	66.6594	-0.92	-0.92	0.00	17.53	7.303	0.05920	7.13294	0.0
32.8742	66.6594	-0.92	-0.92	0.00	17.53	7.303	0.05671	7.13296	0.0
32.8942	66.6594	-0.92	-0.92	0.00	17.53	7.303	0.05422	7.13298	0.0
32.9142	66.6594	-0.92	-0.92	0.00	17.53	7.303	0.05173	7.13300	4.0
32.9342	66.6594	-0.92	-0.92	0.00	17.53	7.303	0.04924	7.13302	2.0
32.9542	66.6594	-0.92	-0.92	0.00	17.53	7.303	0.04675	7.13304	0.0
32.9742	66.6594	-0.92	-0.92	0.00	17.53	7.303	0.04426	7.13305	0.0
32.9942	66.6594	-0.92	-0.92	0.00	17.53	7.303	0.04177	7.13307	0.0
33.0142	66.6594	-0.92	-0.92	0.00	17.53	7.303	0.03928	7.13308	0.0
33.0342	66.6594	-0.92	-0.92	0.00	17.53	7.303	0.03679	7.13309	0.0
33.0542	66.6594	-0.92	-0.92	0.00	17.53	7.303	0.03430	7.13311	0.0
33.0742	66.6594	-0.92	-0.92	0.00	17.53	7.303	0.03181	7.13312	0.0
33.0942	66.6594	-0.92	-0.92	0.00	17.53	7.303	0.02932	7.13313	2.0
33.1142	66.6594	-0.92	-0.92	0.00	17.53	7.303	0.02683	7.13314	0.0
33.1342	66.6594	-0.92	-0.92	0.00	17.53	7.303	0.02434	7.13315	0.0
33.1542	66.6594	-0.92	-0.92	0.00	17.53	7.303	0.02185	7.13316	2.0
33.1742	66.6594	-0.92	-0.92	0.00	17.53	7.303	0.01936	7.13316	0.0
33.1942	66.6594	-0.92	-0.92	0.00	17.53	7.303	0.01687	7.13317	4.0
33.2142	66.6594	-0.92	-0.92	0.00	17.53	7.303	0.01438	7.13317	4.0
33.2342	66.6594	-0.92	-0.92	0.00	17.53	7.303	0.01189	7.13318	0.0
33.2542	66.6594	-0.92	-0.92	0.00	17.53	7.303	0.00940	7.13318	2.0
33.2742	66.6594	-0.92	-0.92	0.00	17.53	7.303	0.00691	7.13319	0.0
33.2942	66.6594	-0.92	-0.92	0.00	17.53	7.303	0.00442	7.13319	0.0
33.3142	66.6594	-0.92	-0.92	0.00	17.53	7.303	0.00193	7.13319	0.0
33.3342	66.6594	-0.92	-0.92	0.00	17.53	7.303	-0.00056	7.13319	0.0
33.3542	66.6594	-0.92	-0.92	0.00	17.53	7.303	-0.00305	7.13319	0.0
33.3742	66.6594	-0.92	-0.92	0.00	17.53	7.303	-0.00554	7.13319	0.0
33.3942	66.6594	-0.92	-0.92	0.00	17.53	7.303	-0.00803	7.13318	2.0
33.4142	66.6594	-0.92	-0.92	0.00	17.53	7.303	-0.01052	7.13318	0.0
33.4342	66.6594	-0.92	-0.92	0.00	17.53	7.303	-0.01301	7.13318	6.0
33.4542	66.6594	-0.92	-0.92	0.00	17.53	7.303	-0.01550	7.13317	0.0
33.4742	66.6594	-0.92	-0.92	0.00	17.53	7.303	-0.01799	7.13317	0.0
33.4942	66.6594	-0.92	-0.92	0.00	17.53	7.303	-0.02048	7.13316	2.0
33.5142	66.6594	-0.92	-0.92	0.00	17.53	7.303	-0.02297	7.13315	0.0
33.5342	66.6594	-0.92	-0.92	0.00	17.53	7.303	-0.02546	7.13314	0.0
33.5542	66.6594	-0.92	-0.92	0.00	17.53	7.303	-0.02795	7.13313	0.0
33.5742	66.6594	-0.92	-0.92	0.00	17.53	7.303	-0.03044	7.13312	0.0
33.5942	66.6594	-0.92	-0.92	0.00	17.53	7.303	-0.03293	7.13311	0.0
33.6142	66.6594	-0.92	-0.92	0.00	17.53	7.303	-0.03542	7.13310	2.0
33.6342	66.6594	-0.92	-0.92	0.00	17.53	7.303	-0.03791	7.13309	2.0
33.6542	66.6594	-0.92	-0.92	0.00	17.53	7.303	-0.04040	7.13307	0.0
33.6742	66.6594	-0.92	-0.92	0.00	17.53	7.303	-0.04289	7.13306	0.0
33.6942	66.6594	-0.92	-0.92	0.00	17.53	7.303	-0.04538	7.13304	0.0
33.7142	66.6594	-0.92	-0.92	0.00	17.53	7.303	-0.04787	7.13303	0.0
33.7342	66.6594	-0.92	-0.92	0.00	17.53	7.303	-0.05036	7.13301	0.0
33.7542	66.6594	-0.92	-0.92	0.00	17.53	7.303	-0.05285	7.13299	0.0
33.7742	66.6594	-0.92	-0.92	0.00	17.53	7.303	-0.05534	7.13297	0.0
33.7942	66.6594	-0.92	-0.92	0.00	17.53	7.303	-0.05783	7.13295	0.0
33.8142	66.6594	-0.92	-0.92	0.00	17.53	7.303	-0.06032	7.13293	0.0
33.8342	66.6594	-0.92	-0.92	0.00	17.53	7.303	-0.06281	7.13291	0.0
33.8542	66.6594	-0.92	-0.92	0.00	17.53	7.303	-0.06530	7.13289	4.0
33.8742	66.6594	-0.92	-0.92	0.00	17.53	7.303	-0.06779	7.13287	0.0
33.8942	66.6594	-0.92	-0.92	0.00	17.53	7.303	-0.07028	7.13284	0.0
33.9142	66.6594	-0.92	-0.92	0.00	17.53	7.303	-0.07277	7.13282	2.0
33.9342	66.6594	-0.92	-0.92	0.00	17.53	7.303	-0.07526	7.13279	2.0
33.9542	66.6594	-0.92	-0.92	0.00	17.53	7.303	-0.07775	7.13277	4.0
33.9742	66.6594	-0.92	-0.92	0.00	17.53	7.303	-0.08024	7.13274	0.0
33.9942	66.6594	-0.92	-0.92	0.00	17.53	7.303	-0.08273	7.13271	2.0
34.0142	66.6594	-0.92	-0.92	0.00	17.53	7.303	-0.08522	7.13268	2.0
34.0342	66.6594	-0.92	-0.92	0.00	17.53	7.303	-0.08771	7.13265	0.0
34.0542	66.6594	-0.92	-0.92	0.00	17.53	7.303	-0.09020	7.13262	2.0
34.0742	66.6594	-0.92	-0.92	0.00	17.53	7.303	-0.09269	7.13259	0.0
34.0942	66.6594	-0.92	-0.92	0.00	17.53	7.303	-0.09518	7.13255	0.0
34.1142	66.6594	-0.92	-0.92	0.00	17.53	7.303	-0.09767	7.13252	2.0
34.1342	66.6594	-0.92	-0.92	0.00	17.53	7.303	-0.10016	7.13249	6.0
34.1542	66.6594	-0.92	-0.92	0.00	17.53	7.303	-0.10264	7.13245	0.0
34.1742	66.6594	-0.92	-0.92	0.00	17.53	7.303	-0.10513	7.13241	2.0
34.1942	66.6594	-0.92	-0.92	0.00	17.53	7.303	-0.10762	7.13238	0.0
34.2142	66.6594	-0.92	-0.92	0.00	17.53	7.303	-0.11011	7.13234	2.0
34.2342	66.6594	-0.92	-0.92	0.00	17.53	7.303	-0.11260	7.13230	4.0
34.2542	66.6594	-0.92	-0.92	0.00	17.53	7.303	-0.11509	7.13226	0.0
34.2742	66.6594	-0.92	-0.92	0.00	17.53	7.303	-0.11758	7.13222	2.0
34.2942	66.6594	-0.92	-0.92	0.00	17.53	7.303	-0.12007	7.13218	0.0
34.3142	66.6594	-0.92	-0.92	0.00	17.53	7.303	-0.12256	7.13214	0.0
34.3342	66.6594	-0.92	-0.92	0.00	17.53	7.303	-0.12505	7.13209	2.0
34.3542	66.6594	-0.92	-0.92	0.00	17.53	7.303	-0.12754	7.13205	0.0
34.3742	66.6594	-0.92	-0.92	0.00	17.53	7.303	-0.13003	7.13200	0.0
34.3942	66.6594	-0.92	-0.92	0.00	17.53	7.303	-0.13252	7.13196	0.0
34.4142	66.6594	-0.92	-0.92	0.00	17.53	7.303	-0.13501	7.13191	0.0
34.4342	66.6594	-0.92	-0.92	0.00	17.53	7.303	-0.13750	7.13186	0.0
34.4542	66.6594	-0.92	-0.92	0.00	17.53	7.303	-0.13999	7.13182	2.0
34.4742	66.6594	-0.92	-0.92	0.00	17.53	7.303	-0.14248	7.13177	0.0
34.4942	66.6594	-0.92	-0.92	0.00	17.53	7.303	-0.14497	7.13172	0.0
34.5142	66.6594	-0.92	-0.92	0.00	17.53	7.303	-0.14746	7.13166	0.0

32.5242	66.6794	-0.92	-0.92	0.00	17.53	7.303	0.10155	7.13436	0.0
32.5442	66.6794	-0.92	-0.92	0.00	17.53	7.303	0.09906	7.13439	0.0
32.5642	66.6794	-0.92	-0.92	0.00	17.53	7.303	0.09657	7.13443	0.0
32.5842	66.6794	-0.92	-0.92	0.00	17.53	7.303	0.09408	7.13446	4.0
32.6042	66.6794	-0.92	-0.92	0.00	17.53	7.303	0.09159	7.13449	2.0
32.6242	66.6794	-0.92	-0.92	0.00	17.53	7.303	0.08910	7.13453	2.0
32.6442	66.6794	-0.92	-0.92	0.00	17.53	7.303	0.08661	7.13456	2.0
32.6642	66.6794	-0.92	-0.92	0.00	17.53	7.303	0.08412	7.13459	0.0
32.6842	66.6794	-0.92	-0.92	0.00	17.53	7.303	0.08163	7.13462	0.0
32.7042	66.6794	-0.92	-0.92	0.00	17.53	7.303	0.07914	7.13464	2.0
32.7242	66.6794	-0.92	-0.92	0.00	17.53	7.303	0.07665	7.13467	0.0
32.7442	66.6794	-0.92	-0.92	0.00	17.53	7.303	0.07416	7.13470	4.0
32.7642	66.6794	-0.92	-0.92	0.00	17.53	7.303	0.07167	7.13472	0.0
32.7842	66.6794	-0.92	-0.92	0.00	17.53	7.303	0.06918	7.13475	0.0
32.8042	66.6794	-0.92	-0.92	0.00	17.53	7.303	0.06669	7.13477	2.0
32.8242	66.6794	-0.92	-0.92	0.00	17.53	7.303	0.06419	7.13479	2.0
32.8442	66.6794	-0.92	-0.92	0.00	17.53	7.303	0.06170	7.13482	2.0
32.8642	66.6794	-0.92	-0.92	0.00	17.53	7.303	0.05921	7.13484	0.0
32.8842	66.6794	-0.92	-0.92	0.00	17.53	7.303	0.05672	7.13486	0.0
32.9042	66.6794	-0.92	-0.92	0.00	17.53	7.303	0.05423	7.13488	0.0
32.9242	66.6794	-0.92	-0.92	0.00	17.53	7.303	0.05174	7.13489	0.0
32.9442	66.6794	-0.92	-0.92	0.00	17.53	7.303	0.04925	7.13491	0.0
32.9642	66.6794	-0.92	-0.92	0.00	17.53	7.303	0.04676	7.13493	0.0
32.9842	66.6794	-0.92	-0.92	0.00	17.53	7.303	0.04427	7.13494	4.0
33.0042	66.6794	-0.92	-0.92	0.00	17.53	7.303	0.04178	7.13496	0.0
33.0242	66.6794	-0.92	-0.92	0.00	17.53	7.303	0.03929	7.13497	0.0
33.0442	66.6794	-0.92	-0.92	0.00	17.53	7.303	0.03680	7.13499	0.0
33.0642	66.6794	-0.92	-0.92	0.00	17.53	7.303	0.03431	7.13500	0.0
33.0842	66.6794	-0.92	-0.92	0.00	17.53	7.303	0.03182	7.13501	2.0
33.1042	66.6794	-0.92	-0.92	0.00	17.53	7.303	0.02933	7.13502	2.0
33.1242	66.6794	-0.92	-0.92	0.00	17.53	7.303	0.02684	7.13503	2.0
33.1442	66.6794	-0.92	-0.92	0.00	17.53	7.303	0.02435	7.13504	2.0
33.1642	66.6794	-0.92	-0.92	0.00	17.53	7.303	0.02186	7.13505	0.0
33.1842	66.6794	-0.92	-0.92	0.00	17.53	7.303	0.01936	7.13506	0.0
33.2042	66.6794	-0.92	-0.92	0.00	17.53	7.303	0.01687	7.13506	4.0
33.2242	66.6794	-0.92	-0.92	0.00	17.53	7.303	0.01438	7.13507	0.0
33.2442	66.6794	-0.92	-0.92	0.00	17.53	7.303	0.01189	7.13507	0.0
33.2642	66.6794	-0.92	-0.92	0.00	17.53	7.303	0.00940	7.13508	2.0
33.2842	66.6794	-0.92	-0.92	0.00	17.53	7.303	0.00691	7.13508	0.0
33.3042	66.6794	-0.92	-0.92	0.00	17.53	7.303	0.00442	7.13508	0.0
33.3242	66.6794	-0.92	-0.92	0.00	17.53	7.303	0.00193	7.13508	0.0
33.3442	66.6794	-0.92	-0.92	0.00	17.53	7.303	-0.00056	7.13508	0.0
33.3642	66.6794	-0.92	-0.92	0.00	17.53	7.303	-0.00305	7.13508	2.0
33.3842	66.6794	-0.92	-0.92	0.00	17.53	7.303	-0.00554	7.13508	4.0
33.4042	66.6794	-0.92	-0.92	0.00	17.53	7.303	-0.00803	7.13508	0.0
33.4242	66.6794	-0.92	-0.92	0.00	17.53	7.303	-0.01052	7.13507	6.0
33.4442	66.6794	-0.92	-0.92	0.00	17.53	7.303	-0.01301	7.13507	2.0
33.4642	66.6794	-0.92	-0.92	0.00	17.53	7.303	-0.01550	7.13507	0.0
33.4842	66.6794	-0.92	-0.92	0.00	17.53	7.303	-0.01799	7.13506	2.0
33.5042	66.6794	-0.92	-0.92	0.00	17.53	7.303	-0.02049	7.13505	0.0
33.5242	66.6794	-0.92	-0.92	0.00	17.53	7.303	-0.02298	7.13505	0.0
33.5442	66.6794	-0.92	-0.92	0.00	17.53	7.303	-0.02547	7.13504	2.0
33.5642	66.6794	-0.92	-0.92	0.00	17.53	7.303	-0.02796	7.13503	2.0
33.5842	66.6794	-0.92	-0.92	0.00	17.53	7.303	-0.03045	7.13502	0.0
33.6042	66.6794	-0.92	-0.92	0.00	17.53	7.303	-0.03294	7.13501	2.0
33.6242	66.6794	-0.92	-0.92	0.00	17.53	7.303	-0.03543	7.13499	0.0
33.6442	66.6794	-0.92	-0.92	0.00	17.53	7.303	-0.03792	7.13498	2.0
33.6642	66.6794	-0.92	-0.92	0.00	17.53	7.303	-0.04041	7.13497	0.0
33.6842	66.6794	-0.92	-0.92	0.00	17.53	7.303	-0.04290	7.13495	2.0
33.7042	66.6794	-0.92	-0.92	0.00	17.53	7.303	-0.04539	7.13494	0.0
33.7242	66.6794	-0.92	-0.92	0.00	17.53	7.303	-0.04788	7.13492	0.0
33.7442	66.6794	-0.92	-0.92	0.00	17.53	7.303	-0.05037	7.13490	0.0
33.7642	66.6794	-0.92	-0.92	0.00	17.53	7.303	-0.05286	7.13489	0.0
33.7842	66.6794	-0.92	-0.92	0.00	17.53	7.303	-0.05535	7.13487	4.0
33.8042	66.6794	-0.92	-0.92	0.00	17.53	7.303	-0.05784	7.13485	2.0
33.8242	66.6794	-0.92	-0.92	0.00	17.53	7.303	-0.06033	7.13483	0.0
33.8442	66.6794	-0.92	-0.92	0.00	17.53	7.303	-0.06282	7.13481	4.0
33.8642	66.6794	-0.92	-0.92	0.00	17.53	7.303	-0.06532	7.13478	2.0
33.8842	66.6794	-0.92	-0.92	0.00	17.53	7.303	-0.06781	7.13476	2.0
33.9042	66.6794	-0.92	-0.92	0.00	17.53	7.303	-0.07030	7.13474	6.0
33.9242	66.6794	-0.92	-0.92	0.00	17.53	7.303	-0.07279	7.13471	2.0
33.9442	66.6794	-0.92	-0.92	0.00	17.53	7.303	-0.07528	7.13468	0.0
33.9642	66.6794	-0.92	-0.92	0.00	17.53	7.303	-0.07777	7.13466	0.0
33.9842	66.6794	-0.92	-0.92	0.00	17.53	7.303	-0.08026	7.13463	0.0
34.0042	66.6794	-0.92	-0.92	0.00	17.53	7.303	-0.08275	7.13460	0.0
34.0242	66.6794	-0.92	-0.92	0.00	17.53	7.303	-0.08524	7.13457	2.0
34.0442	66.6794	-0.92	-0.92	0.00	17.53	7.303	-0.08773	7.13454	0.0
34.0642	66.6794	-0.92	-0.92	0.00	17.53	7.303	-0.09022	7.13451	0.0
34.0842	66.6794	-0.92	-0.92	0.00	17.53	7.303	-0.09271	7.13448	0.0
34.1042	66.6794	-0.92	-0.92	0.00	17.53	7.303	-0.09520	7.13445	0.0
34.1242	66.6794	-0.92	-0.92	0.00	17.53	7.303	-0.09769	7.13441	0.0
34.1442	66.6794	-0.92	-0.92	0.00	17.53	7.303	-0.10018	7.13438	0.0
34.1642	66.6794	-0.92	-0.92	0.00	17.53	7.303	-0.10267	7.13434	0.0
34.1842	66.6794	-0.92	-0.92	0.00	17.53	7.303	-0.10516	7.13431	0.0
34.2042	66.6794	-0.92	-0.92	0.00	17.53	7.303	-0.10765	7.13427	2.0
34.2242	66.6794	-0.92	-0.92	0.00	17.53	7.303	-0.11014	7.13423	2.0
34.2442	66.6794	-0.92	-0.92	0.00	17.53	7.303	-0.11263	7.13419	0.0
34.2642	66.6794	-0.92	-0.92	0.00	17.53	7.303	-0.11512	7.13415	0.0
34.2842	66.6794	-0.92	-0.92	0.00	17.53	7.303	-0.11761	7.13411	0.0
34.3042	66.6794	-0.92	-0.92	0.00	17.53	7.303	-0.12010	7.13407	4.0
34.3242	66.6794	-0.92	-0.92	0.00	17.53	7.303	-0.12259	7.13403	0.0
34.3442	66.6794	-0.92	-0.92	0.00	17.53	7.303	-0.12508	7.13399	2.0
34.3642	66.6794	-0.92	-0.92	0.00	17.53	7.303	-0.12757	7.13394	0.0
34.3842	66.6794	-0.92	-0.92	0.00	17.53	7.303	-0.13007	7.13390	2.0
34.4042	66.6794	-0.92	-0.92	0.00	17.53	7.303	-0.13256	7.13385	0.0
34.4242	66.6794	-0.92	-0.92	0.00	17.53	7.303	-0.13505	7.13380	2.0
34.4442	66.6794	-0.92	-0.92	0.00	17.53	7.303	-0.13754	7.13376	0.0
34.4642	66.6794	-0.92	-0.92	0.00	17.53	7.303	-0.14003	7.13371	0.0
34.4842	66.6794	-0.92	-0.92	0.00	17.53	7.303	-0.14252	7.13366	0.0
34.5042	66.6794	-0.92	-0.92	0.00	17.53	7.303	-0.14501	7.13361	0.0
34.5242	66.6794	-0.92	-0.92	0.00	17.53	7.303	-0.14750	7.13356	0.0

32.5342	66.6994	-0.92	-0.92	0.00	17.53	7.303	0.10158	7.13625	0.0
32.5542	66.6994	-0.92	-0.92	0.00	17.53	7.303	0.09909	7.13629	0.0
32.5742	66.6994	-0.92	-0.92	0.00	17.53	7.303	0.09660	7.13632	0.0
32.5942	66.6994	-0.92	-0.92	0.00	17.53	7.303	0.09411	7.13635	0.0
32.6142	66.6994	-0.92	-0.92	0.00	17.53	7.303	0.09161	7.13639	2.0
32.6342	66.6994	-0.92	-0.92	0.00	17.53	7.303	0.08912	7.13642	0.0
32.6542	66.6994	-0.92	-0.92	0.00	17.53	7.303	0.08663	7.13645	4.0
32.6742	66.6994	-0.92	-0.92	0.00	17.53	7.303	0.08414	7.13648	0.0
32.6942	66.6994	-0.92	-0.92	0.00	17.53	7.303	0.08165	7.13651	0.0
32.7142	66.6994	-0.92	-0.92	0.00	17.53	7.303	0.07916	7.13654	0.0
32.7342	66.6994	-0.92	-0.92	0.00	17.53	7.303	0.07667	7.13656	0.0
32.7542	66.6994	-0.92	-0.92	0.00	17.53	7.303	0.07418	7.13659	0.0
32.7742	66.6994	-0.92	-0.92	0.00	17.53	7.303	0.07169	7.13661	2.0
32.7942	66.6994	-0.92	-0.92	0.00	17.53	7.303	0.06919	7.13664	8.0
32.8142	66.6994	-0.92	-0.92	0.00	17.53	7.303	0.06670	7.13666	4.0
32.8342	66.6994	-0.92	-0.92	0.00	17.53	7.303	0.06421	7.13669	0.0
32.8542	66.6994	-0.92	-0.92	0.00	17.53	7.303	0.06172	7.13671	0.0
32.8742	66.6994	-0.92	-0.92	0.00	17.53	7.303	0.05923	7.13673	4.0
32.8942	66.6994	-0.92	-0.92	0.00	17.53	7.303	0.05674	7.13675	0.0
32.9142	66.6994	-0.92	-0.92	0.00	17.53	7.303	0.05425	7.13677	2.0
32.9342	66.6994	-0.92	-0.92	0.00	17.53	7.303	0.05176	7.13679	0.0
32.9542	66.6994	-0.92	-0.92	0.00	17.53	7.303	0.04926	7.13680	0.0
32.9742	66.6994	-0.92	-0.92	0.00	17.53	7.303	0.04677	7.13682	0.0
32.9942	66.6994	-0.92	-0.92	0.00	17.53	7.303	0.04428	7.13684	2.0
33.0142	66.6994	-0.92	-0.92	0.00	17.53	7.303	0.04179	7.13685	0.0
33.0342	66.6994	-0.92	-0.92	0.00	17.53	7.303	0.03930	7.13687	2.0
33.0542	66.6994	-0.92	-0.92	0.00	17.53	7.303	0.03681	7.13688	2.0
33.0742	66.6994	-0.92	-0.92	0.00	17.53	7.303	0.03432	7.13689	0.0
33.0942	66.6994	-0.92	-0.92	0.00	17.53	7.303	0.03183	7.13690	2.0
33.1142	66.6994	-0.92	-0.92	0.00	17.53	7.303	0.02933	7.13691	2.0
33.1342	66.6994	-0.92	-0.92	0.00	17.53	7.303	0.02684	7.13692	0.0
33.1542	66.6994	-0.92	-0.92	0.00	17.53	7.303	0.02435	7.13693	0.0
33.1742	66.6994	-0.92	-0.92	0.00	17.53	7.303	0.02186	7.13694	0.0
33.1942	66.6994	-0.92	-0.92	0.00	17.53	7.303	0.01937	7.13695	4.0
33.2142	66.6994	-0.92	-0.92	0.00	17.53	7.303	0.01688	7.13695	0.0
33.2342	66.6994	-0.92	-0.92	0.00	17.53	7.303	0.01439	7.13696	0.0
33.2542	66.6994	-0.92	-0.92	0.00	17.53	7.303	0.01190	7.13696	0.0
33.2742	66.6994	-0.92	-0.92	0.00	17.53	7.303	0.00940	7.13697	4.0
33.2942	66.6994	-0.92	-0.92	0.00	17.53	7.303	0.00691	7.13697	0.0
33.3142	66.6994	-0.92	-0.92	0.00	17.53	7.303	0.00442	7.13697	0.0
33.3342	66.6994	-0.92	-0.92	0.00	17.53	7.303	0.00193	7.13697	0.0
33.3542	66.6994	-0.92	-0.92	0.00	17.53	7.303	-0.00056	7.13697	2.0
33.3742	66.6994	-0.92	-0.92	0.00	17.53	7.303	-0.00305	7.13697	0.0
33.3942	66.6994	-0.92	-0.92	0.00	17.53	7.303	-0.00554	7.13697	0.0
33.4142	66.6994	-0.92	-0.92	0.00	17.53	7.303	-0.00803	7.13697	0.0
33.4342	66.6994	-0.92	-0.92	0.00	17.53	7.303	-0.01053	7.13697	0.0
33.4542	66.6994	-0.92	-0.92	0.00	17.53	7.303	-0.01302	7.13696	4.0
33.4742	66.6994	-0.92	-0.92	0.00	17.53	7.303	-0.01551	7.13696	2.0
33.4942	66.6994	-0.92	-0.92	0.00	17.53	7.303	-0.01800	7.13695	6.0
33.5142	66.6994	-0.92	-0.92	0.00	17.53	7.303	-0.02049	7.13695	0.0
33.5342	66.6994	-0.92	-0.92	0.00	17.53	7.303	-0.02298	7.13694	4.0
33.5542	66.6994	-0.92	-0.92	0.00	17.53	7.303	-0.02547	7.13693	4.0
33.5742	66.6994	-0.92	-0.92	0.00	17.53	7.303	-0.02796	7.13692	6.0
33.5942	66.6994	-0.92	-0.92	0.00	17.53	7.303	-0.03046	7.13691	2.0
33.6142	66.6994	-0.92	-0.92	0.00	17.53	7.303	-0.03295	7.13690	4.0
33.6342	66.6994	-0.92	-0.92	0.00	17.53	7.303	-0.03544	7.13689	0.0
33.6542	66.6994	-0.92	-0.92	0.00	17.53	7.303	-0.03793	7.13687	0.0
33.6742	66.6994	-0.92	-0.92	0.00	17.53	7.303	-0.04042	7.13686	0.0
[...]
35.4042	69.5994	-0.92	-0.92	0.00	17.53	7.303	-0.07817	7.40869	2.0
35.4242	69.5994	-0.92	-0.92	0.00	17.53	7.303	-0.08075	7.40866	2.0
35.4442	69.5994	-0.92	-0.92	0.00	17.53	7.303	-0.08334	7.40864	4.0
35.4642	69.5994	-0.92	-0.92	0.00	17.53	7.303	-0.08593	7.40861	2.0
35.4842	69.5994	-0.92	-0.92	0.00	17.53	7.303	-0.08851	7.40858	0.0
35.5042	69.5994	-0.92	-0.92	0.00	17.53	7.303	-0.09110	7.40854	2.0
35.5242	69.5994	-0.92	-0.92	0.00	17.53	7.303	-0.09368	7.40851	0.0
35.5442	69.5994	-0.92	-0.92	0.00	17.53	7.303	-0.09627	7.40848	0.0
35.5642	69.5994	-0.92	-0.92	0.00	17.53	7.303	-0.09886	7.40845	0.0
35.5842	69.5994	-0.92	-0.92	0.00	17.53	7.303	-0.10144	7.40841	0.0
35.6042	69.5994	-0.92	-0.92	0.00	17.53	7.303	-0.10403	7.40837	2.0
35.6242	69.5994	-0.92	-0.92	0.00	17.53	7.303	-0.10662	7.40834	2.0
35.6442	69.5994	-0.92	-0.92	0.00	17.53	7.303	-0.10920	7.40830	2.0
35.6642	69.5994	-0.92	-0.92	0.00	17.53	7.303	-0.11179	7.40826	8.0
35.6842	69.5994	-0.92	-0.92	0.00	17.53	7.303	-0.11437	7.40822	0.0
35.7042	69.5994	-0.92	-0.92	0.00	17.53	7.303	-0.11696	7.40818	0.0
35.7242	69.5994	-0.92	-0.92	0.00	17.53	7.303	-0.11954	7.40814	4.0
35.7442	69.5994	-0.92	-0.92	0.00	17.53	7.303	-0.12213	7.40810	2.0
35.7642	69.5994	-0.92	-0.92	0.00	17.53	7.303	-0.12472	7.40806	2.0
35.7842	69.5994	-0.92	-0.92	0.00	17.53	7.303	-0.12730	7.40801	0.0
35.8042	69.5994	-0.92	-0.92	0.00	17.53	7.303	-0.12989	7.40797	0.0
35.8242	69.5994	-0.92	-0.92	0.00	17.53	7.303	-0.13247	7.40792	0.0
35.8442	69.5994	-0.92	-0.92	0.00	17.53	7.303	-0.13506	7.40787	2.0
35.8642	69.5994	-0.92	-0.92	0.00	17.53	7.303	-0.13765	7.40783	2.0
35.8842	69.5994	-0.92	-0.92	0.00	17.53	7.303	-0.14023	7.40778	0.0
35.9042	69.5994	-0.92	-0.92	0.00	17.53	7.303	-0.14282	7.40773	2.0
35.9242	69.5994	-0.92	-0.92	0.00	17.53	7.303	-0.14540	7.40768	0.0
35.9442	69.5994	-0.92	-0.92	0.00	17.53	7.303	-0.14799	7.40763	2.0
35.9642	69.5994	-0.92	-0.92	0.00	17.53	7.303	-0.15057	7.40757	0.0
35.9842	69.5994	-0.92	-0.92	0.00	17.53	7.303	-0.15316	7.40752	0.0

33.9942	69.6194	-0.92	-0.92	0.00	17.53	7.303	0.10548	7.41021	0.0
34.0142	69.6194	-0.92	-0.92	0.00	17.53	7.303	0.10289	7.41025	2.0
34.0342	69.6194	-0.92	-0.92	0.00	17.53	7.303	0.10030	7.41029	0.0
34.0542	69.6194	-0.92	-0.92	0.00	17.53	7.303	0.09772	7.41032	0.0
34.0742	69.6194	-0.92	-0.92	0.00	17.53	7.303	0.09513	7.41035	0.0
34.0942	69.6194	-0.92	-0.92	0.00	17.53	7.303	0.09254	7.41039	0.0
34.1142	69.6194	-0.92	-0.92	0.00	17.53	7.303	0.08996	7.41042	0.0
34.1342	69.6194	-0.92	-0.92	0.00	17.53	7.303	0.08737	7.41045	2.0
34.1542	69.6194	-0.92	-0.92	0.00	17.53	7.303	0.08478	7.41048	0.0
34.1742	69.6194	-0.92	-0.92	0.00	17.53	7.303	0.08220	7.41051	0.0
34.1942	69.6194	-0.92	-0.92	0.00	17.53	7.303	0.07961	7.41054	4.0
34.2142	69.6194	-0.92	-0.92	0.00	17.53	7.303	0.07702	7.41057	2.0
34.2342	69.6194	-0.92	-0.92	0.00	17.53	7.303	0.07444	7.41059	0.0
34.2542	69.6194	-0.92	-0.92	0.00	17.53	7.303	0.07185	7.41062	2.0
34.2742	69.6194	-0.92	-0.92	0.00	17.53	7.303	0.06926	7.41064	0.0
34.2942	69.6194	-0.92	-0.92	0.00	17.53	7.303	0.06668	7.41067	6.0
34.3142	69.6194	-0.92	-0.92	0.00	17.53	7.303	0.06409	7.41069	2.0
34.3342	69.6194	-0.92	-0.92	0.00	17.53	7.303	0.06150	7.41071	2.0
34.3542	69.6194	-0.92	-0.92	0.00	17.53	7.303	0.05892	7.41073	0.0
34.3742	69.6194	-0.92	-0.92	0.00	17.53	7.303	0.05633	7.41075	2.0
34.3942	69.6194	-0.92	-0.92	0.00	17.53	7.303	0.05374	7.41077	6.0
34.4142	69.6194	-0.92	-0.92	0.00	17.53	7.303	0.05116	7.41079	2.0
34.4342	69.6194	-0.92	-0.92	0.00	17.53	7.303	0.04857	7.41081	4.0
34.4542	69.6194	-0.92	-0.92	0.00	17.53	7.303	0.04598	7.41082	8.0
34.4742	69.6194	-0.92	-0.92	0.00	17.53	7.303	0.04340	7.41084	0.0
34.4942	69.6194	-0.92	-0.92	0.00	17.53	7.303	0.04081	7.41085	4.0
34.5142	69.6194	-0.92	-0.92	0.00	17.53	7.303	0.03822	7.41087	2.0
34.5342	69.6194	-0.92	-0.92	0.00	17.53	7.303	0.03563	7.41088	2.0
34.5542	69.6194	-0.92	-0.92	0.00	17.53	7.303	0.03305	7.41089	0.0
34.5742	69.6194	-0.92	-0.92	0.00	17.53	7.303	0.03046	7.41090	2.0
34.5942	69.6194	-0.92	-0.92	0.00	17.53	7.303	0.02787	7.41091	2.0
34.6142	69.6194	-0.92	-0.92	0.00	17.53	7.303	0.02529	7.41092	0.0
34.6342	69.6194	-0.92	-0.92	0.00	17.53	7.303	0.02270	7.41093	2.0
34.6542	69.6194	-0.92	-0.92	0.00	17.53	7.303	0.02011	7.41094	0.0
34.6742	69.6194	-0.92	-0.92	0.00	17.53	7.303	0.01753	7.41094	6.0
34.6942	69.6194	-0.92	-0.92	0.00	17.53	7.303	0.01494	7.41095	4.0
34.7142	69.6194	-0.92	-0.92	0.00	17.53	7.303	0.01235	7.41096	2.0
34.7342	69.6194	-0.92	-0.92	0.00	17.53	7.303	0.00977	7.41096	10.0
34.7542	69.6194	-0.92	-0.92	0.00	17.53	7.303	0.00718	7.41096	12.0
34.7742	69.6194	-0.92	-0.92	0.00	17.53	7.303	0.00459	7.41096	10.0
34.7942	69.6194	-0.92	-0.92	0.00	17.53	7.303	0.00200	7.41097	6.0
34.8142	69.6194	-0.92	-0.92	0.00	17.53	7.303	-0.00058	7.41097	4.0
34.8342	69.6194	-0.92	-0.92	0.00	17.53	7.303	-0.00317	7.41096	0.0
34.8542	69.6194	-0.92	-0.92	0.00	17.53	7.303	-0.00576	7.41096	0.0
34.8742	69.6194	-0.92	-0.92	0.00	17.53	7.303	-0.00834	7.41096	10.0
34.8942	69.6194	-0.92	-0.92	0.00	17.53	7.303	-0.01093	7.41096	2.0
34.9142	69.6194	-0.92	-0.92	0.00	17.53	7.303	-0.01352	7.41095	2.0
34.9342	69.6194	-0.92	-0.92	0.00	17.53	7.303	-0.01610	7.41095	0.0
34.9542	69.6194	-0.92	-0.92	0.00	17.53	7.303	-0.01869	7.41094	4.0
34.9742	69.6194	-0.92	-0.92	0.00	17.53	7.303	-0.02128	7.41093	0.0
34.9942	69.6194	-0.92	-0.92	0.00	17.53	7.303	-0.02386	7.41093	2.0
35.0142	69.6194	-0.92	-0.92	0.00	17.53	7.303	-0.02645	7.41092	2.0
35.0342	69.6194	-0.92	-0.92	0.00	17.53	7.303	-0.02904	7.41091	0.0
35.0542	69.6194	-0.92	-0.92	0.00	17.53	7.303	-0.03162	7.41090	0.0
35.0742	69.6194	-0.92	-0.92	0.00	17.53	7.303	-0.03421	7.41089	2.0
35.0942	69.6194	-0.92	-0.92	0.00	17.53	7.303	-0.03680	7.41087	6.0
35.1142	69.6194	-0.92	-0.92	0.00	17.53	7.303	-0.03939	7.41086	2.0
35.1342	69.6194	-0.92	-0.92	0.00	17.53	7.303	-0.04197	7.41085	4.0
35.1542	69.6194	-0.92	-0.92	0.00	17.53	7.303	-0.04456	7.41083	0.0
35.1742	69.6194	-0.92	-0.92	0.00	17.53	7.303	-0.04715	7.41082	6.0
35.1942	69.6194	-0.92	-0.92	0.00	17.53	7.303	-0.04973	7.41080	0.0
35.2142	69.6194	-0.92	-0.92	0.00	17.53	7.303	-0.05232	7.41078	0.0
35.2342	69.6194	-0.92	-0.92	0.00	17.53	7.303	-0.05491	7.41076	0.0
35.2542	69.6194	-0.92	-0.92	0.00	17.53	7.303	-0.05749	7.41074	4.0
35.2742	69.6194	-0.92	-0.92	0.00	17.53	7.303	-0.06008	7.41072	0.0
35.2942	69.6194	-0.92	-0.92	0.00	17.53	7.303	-0.06267	7.41070	6.0
35.3142	69.6194	-0.92	-0.92	0.00	17.53	7.303	-0.06525	7.41068	4.0
35.3342	69.6194	-0.92	-0.92	0.00	17.53	7.303	-0.06784	7.41065	2.0
35.3542	69.6194	-0.92	-0.92	0.00	17.53	7.303	-0.07043	7.41063	2.0
35.3742	69.6194	-0.92	-0.92	0.00	17.53	7.303	-0.07301	7.41061	0.0
35.3942	69.6194	-0.92	-0.92	0.00	17.53	7.303	-0.07560	7.41058	2.0
35.4142	69.6194	-0.92	-0.92	0.00	17.53	7.303	-0.07819	7.41055	2.0
35.4342	69.6194	-0.92	-0.92	0.00	17.53	7.303	-0.08077	7.41053	0.0
35.4542	69.6194	-0.92	-0.92	0.00	17.53	7.303	-0.08336	7.41050	0.0
35.4742	69.6194	-0.92	-0.92	0.00	17.53	7.303	-0.08595	7.41047	0.0
35.4942	69.6194	-0.92	-0.92	0.00	17.53	7.303	-0.08854	7.41044	0.0
35.5142	69.6194	-0.92	-0.92	0.00	17.53	7.303	-0.09112	7.41041	2.0
35.5342	69.6194	-0.92	-0.92	0.00	17.53	7.303	-0.09371	7.41037	2.0
35.5542	69.6194	-0.92	-0.92	0.00	17.53	7.303	-0.09630	7.41034	4.0
35.5742	69.6194	-0.92	-0.92	0.00	17.53	7.303	-0.09888	7.41031	0.0
35.5942	69.6194	-0.92	-0.92	0.00	17.53	7.303	-0.10147	7.41027	2.0
35.6142	69.6194	-0.92	-0.92	0.00	17.53	7.303	-0.10406	7.41023	0.0
35.6342	69.6194	-0.92	-0.92	0.00	17.53	7.303	-0.10664	7.41020	2.0
35.6542	69.6194	-0.92	-0.92	0.00	17.53	7.303	-0.10923	7.41016	4.0
35.6742	69.6194	-0.92	-0.92	0.00	17.53	7.303	-0.11182	7.41012	2.0
35.6942	69.6194	-0.92	-0.92	0.00	17.53	7.303	-0.11440	7.41008	0.0
35.7142	69.6194	-0.92	-0.92	0.00	17.53	7.303	-0.11699	7.41004	0.0
35.7342	69.6194	-0.92	-0.92	0.00	17.53	7.303	-0.11957	7.41000	2.0
35.7542	69.6194	-0.92	-0.92	0.00	17.53	7.303	-0.12216	7.40996	2.0
35.7742	69.6194	-0.92	-0.92	0.00	17.53	7.303	-0.12475	7.40992	2.0
35.7942	69.6194	-0.92	-0.92	0.00	17.53	7.303	-0.12733	7.40987	0.0
35.8142	69.6194	-0.92	-0.92	0.00	17.53	7.303	-0.12992	7.40983	2.0
35.8342	69.6194	-0.92	-0.92	0.00	17.53	7.303	-0.13251	7.40978	2.0
35.8542	69.6194	-0.92	-0.92	0.00	17.53	7.303	-0.13509	7.40973	2.0
35.8742	69.6194	-0.92	-0.92	0.00	17.53	7.303	-0.13768	7.40969	0.0
35.8942	69.6194	-0.92	-0.92	0.00	17.53	7.303	-0.14027	7.40964	4.0
35.9142	69.6194	-0.92	-0.92	0.00	17.53	7.303	-0.14285	7.40959	0.0
35.9342	69.6194	-0.92	-0.92	0.00	17.53	7.303	-0.14544	7.40954	0.0
35.9542	69.6194	-0.92	-0.92	0.00	17.53	7.303	-0.14803	7.40949	0.0
35.9742	69.6194	-0.92	-0.92	0.00	17.53	7.303	-0.15061	7.40943	4.0
35.9942	69.6194	-0.92	-0.92	0.00	17.53	7.303	-0.15320	7.40938	2.0