File: Data/Omega/1.5deg-2.0deg-rsm-2h30mins_11352-annealed_004_w-scans.dat
# filename: 1.5deg-2.0deg-rsm-2h30mins_11352-annealed_004.dat
# reflection: (004)
# type: rotated into a series of omega scans
# x-axis: Omega_2Theta
#
# Omega	2Theta	Phi  	Chi   	X    	Y    	Z    	q_para	q_perp	Intensity
# [deg]	[deg] 	[deg]	[deg] 	[mm] 	[mm] 	[mm] 	[nm-1]	[nm-1]	[counts/s]
32.6159	66.6676	-1.19	-0.10	0.00	17.51	7.290	0.08938	7.13341	0.0
32.6359	66.6676	-1.19	-0.10	0.00	17.51	7.290	0.08689	7.13344	0.0
32.6559	66.6676	-1.19	-0.10	0.00	17.51	7.290	0.08440	7.13347	2.0
32.6759	66.6676	-1.19	-0.10	0.00	17.51	7.290	0.08191	7.13349	2.0
32.6959	66.6676	-1.19	-0.10	0.00	17.51	7.290	0.07942	7.13352	0.0
32.7159	66.6676	-1.19	-0.10	0.00	17.51	7.290	0.07693	7.13355	0.0
32.7359	66.6676	-1.19	-0.10	0.00	17.51	7.290	0.07444	7.13358	0.0
32.7559	66.6676	-1.19	-0.10	0.00	17.51	7.290	0.07195	7.13360	2.0
32.7759	66.6676	-1.19	-0.10	0.00	17.51	7.290	0.06946	7.13363	0.0
32.7959	66.6676	-1.19	-0.10	0.00	17.51	7.290	0.06697	7.13365	0.0
32.8159	66.6676	-1.19	-0.10	0.00	17.51	7.290	0.06448	7.13367	0.0
32.8359	66.6676	-1.19	-0.10	0.00	17.51	7.290	0.06199	7.13370	0.0
32.8559	66.6676	-1.19	-0.10	0.00	17.51	7.290	0.05950	7.13372	0.0
32.8759	66.6676	-1.19	-0.10	0.00	17.51	7.290	0.05701	7.13374	0.0
32.8959	66.6676	-1.19	-0.10	0.00	17.51	7.290	0.05452	7.13376	0.0
32.9159	66.6676	-1.19	-0.10	0.00	17.51	7.290	0.05203	7.13378	0.0
32.9359	66.6676	-1.19	-0.10	0.00	17.51	7.290	0.04954	7.13379	2.0
32.9559	66.6676	-1.19	-0.10	0.00	17.51	7.290	0.04705	7.13381	0.0
32.9759	66.6676	-1.19	-0.10	0.00	17.51	7.290	0.04456	7.13383	0.0
32.9959	66.6676	-1.19	-0.10	0.00	17.51	7.290	0.04207	7.13384	0.0
33.0159	66.6676	-1.19	-0.10	0.00	17.51	7.290	0.03958	7.13386	0.0
33.0359	66.6676	-1.19	-0.10	0.00	17.51	7.290	0.03709	7.13387	0.0
33.0559	66.6676	-1.19	-0.10	0.00	17.51	7.290	0.03460	7.13388	0.0
33.0759	66.6676	-1.19	-0.10	0.00	17.51	7.290	0.03211	7.13389	0.0
33.0959	66.6676	-1.19	-0.10	0.00	17.51	7.290	0.02962	7.13390	0.0
33.1159	66.6676	-1.19	-0.10	0.00	17.51	7.290	0.02713	7.13391	0.0
33.1359	66.6676	-1.19	-0.10	0.00	17.51	7.290	0.02464	7.13392	0.0
33.1559	66.6676	-1.19	-0.10	0.00	17.51	7.290	0.02215	7.13393	0.0
33.1759	66.6676	-1.19	-0.10	0.00	17.51	7.290	0.01966	7.13394	4.0
33.1959	66.6676	-1.19	-0.10	0.00	17.51	7.290	0.01717	7.13394	0.0
33.2159	66.6676	-1.19	-0.10	0.00	17.51	7.290	0.01468	7.13395	2.0
33.2359	66.6676	-1.19	-0.10	0.00	17.51	7.290	0.01219	7.13395	2.0
33.2559	66.6676	-1.19	-0.10	0.00	17.51	7.290	0.00970	7.13396	8.0
33.2759	66.6676	-1.19	-0.10	0.00	17.51	7.290	0.00721	7.13396	0.0
33.2959	66.6676	-1.19	-0.10	0.00	17.51	7.290	0.00472	7.13396	0.0
33.3159	66.6676	-1.19	-0.10	0.00	17.51	7.290	0.00223	7.13396	0.0
33.3359	66.6676	-1.19	-0.10	0.00	17.51	7.290	-0.00026	7.13397	2.0
33.3559	66.6676	-1.19	-0.10	0.00	17.51	7.290	-0.00275	7.13396	0.0
33.3759	66.6676	-1.19	-0.10	0.00	17.51	7.290	-0.00524	7.13396	2.0
33.3959	66.6676	-1.19	-0.10	0.00	17.51	7.290	-0.00773	7.13396	2.0
33.4159	66.6676	-1.19	-0.10	0.00	17.51	7.290	-0.01022	7.13396	0.0
33.4359	66.6676	-1.19	-0.10	0.00	17.51	7.290	-0.01271	7.13395	0.0
33.4559	66.6676	-1.19	-0.10	0.00	17.51	7.290	-0.01520	7.13395	2.0
33.4759	66.6676	-1.19	-0.10	0.00	17.51	7.290	-0.01769	7.13394	4.0
33.4959	66.6676	-1.19	-0.10	0.00	17.51	7.290	-0.02018	7.13394	4.0
33.5159	66.6676	-1.19	-0.10	0.00	17.51	7.290	-0.02267	7.13393	0.0
33.5359	66.6676	-1.19	-0.10	0.00	17.51	7.290	-0.02516	7.13392	2.0
33.5559	66.6676	-1.19	-0.10	0.00	17.51	7.290	-0.02765	7.13391	0.0
33.5759	66.6676	-1.19	-0.10	0.00	17.51	7.290	-0.03014	7.13390	2.0
33.5959	66.6676	-1.19	-0.10	0.00	17.51	7.290	-0.03263	7.13389	0.0
33.6159	66.6676	-1.19	-0.10	0.00	17.51	7.290	-0.03512	7.13388	2.0
33.6359	66.6676	-1.19	-0.10	0.00	17.51	7.290	-0.03761	7.13387	0.0
33.6559	66.6676	-1.19	-0.10	0.00	17.51	7.290	-0.04010	7.13385	0.0
33.6759	66.6676	-1.19	-0.10	0.00	17.51	7.290	-0.04260	7.13384	2.0
33.6959	66.6676	-1.19	-0.10	0.00	17.51	7.290	-0.04509	7.13382	0.0
33.7159	66.6676	-1.19	-0.10	0.00	17.51	7.290	-0.04758	7.13381	2.0
33.7359	66.6676	-1.19	-0.10	0.00	17.51	7.290	-0.05007	7.13379	0.0
33.7559	66.6676	-1.19	-0.10	0.00	17.51	7.290	-0.05256	7.13377	0.0
33.7759	66.6676	-1.19	-0.10	0.00	17.51	7.290	-0.05505	7.13375	0.0
33.7959	66.6676	-1.19	-0.10	0.00	17.51	7.290	-0.05754	7.13373	2.0
33.8159	66.6676	-1.19	-0.10	0.00	17.51	7.290	-0.06003	7.13371	4.0
33.8359	66.6676	-1.19	-0.10	0.00	17.51	7.290	-0.06252	7.13369	2.0
33.8559	66.6676	-1.19	-0.10	0.00	17.51	7.290	-0.06501	7.13367	0.0
33.8759	66.6676	-1.19	-0.10	0.00	17.51	7.290	-0.06750	7.13365	0.0
33.8959	66.6676	-1.19	-0.10	0.00	17.51	7.290	-0.06999	7.13362	0.0
33.9159	66.6676	-1.19	-0.10	0.00	17.51	7.290	-0.07248	7.13360	2.0
33.9359	66.6676	-1.19	-0.10	0.00	17.51	7.290	-0.07497	7.13357	2.0
33.9559	66.6676	-1.19	-0.10	0.00	17.51	7.290	-0.07746	7.13354	2.0
33.9759	66.6676	-1.19	-0.10	0.00	17.51	7.290	-0.07995	7.13352	2.0
33.9959	66.6676	-1.19	-0.10	0.00	17.51	7.290	-0.08244	7.13349	0.0
34.0159	66.6676	-1.19	-0.10	0.00	17.51	7.290	-0.08493	7.13346	0.0
34.0359	66.6676	-1.19	-0.10	0.00	17.51	7.290	-0.08742	7.13343	2.0
34.0559	66.6676	-1.19	-0.10	0.00	17.51	7.290	-0.08991	7.13340	0.0
34.0759	66.6676	-1.19	-0.10	0.00	17.51	7.290	-0.09240	7.13337	0.0
34.0959	66.6676	-1.19	-0.10	0.00	17.51	7.290	-0.09489	7.13333	0.0
34.1159	66.6676	-1.19	-0.10	0.00	17.51	7.290	-0.09738	7.13330	0.0
34.1359	66.6676	-1.19	-0.10	0.00	17.51	7.290	-0.09987	7.13327	4.0
34.1559	66.6676	-1.19	-0.10	0.00	17.51	7.290	-0.10236	7.13323	0.0
34.1759	66.6676	-1.19	-0.10	0.00	17.51	7.290	-0.10485	7.13319	2.0
34.1959	66.6676	-1.19	-0.10	0.00	17.51	7.290	-0.10734	7.13316	0.0
34.2159	66.6676	-1.19	-0.10	0.00	17.51	7.290	-0.10983	7.13312	2.0
34.2359	66.6676	-1.19	-0.10	0.00	17.51	7.290	-0.11232	7.13308	0.0
34.2559	66.6676	-1.19	-0.10	0.00	17.51	7.290	-0.11481	7.13304	2.0
34.2759	66.6676	-1.19	-0.10	0.00	17.51	7.290	-0.11730	7.13300	0.0
34.2959	66.6676	-1.19	-0.10	0.00	17.51	7.290	-0.11979	7.13296	0.0
34.3159	66.6676	-1.19	-0.10	0.00	17.51	7.290	-0.12228	7.13292	2.0
34.3359	66.6676	-1.19	-0.10	0.00	17.51	7.290	-0.12477	7.13287	4.0
34.3559	66.6676	-1.19	-0.10	0.00	17.51	7.290	-0.12726	7.13283	0.0
34.3759	66.6676	-1.19	-0.10	0.00	17.51	7.290	-0.12975	7.13279	2.0
34.3959	66.6676	-1.19	-0.10	0.00	17.51	7.290	-0.13224	7.13274	2.0
34.4159	66.6676	-1.19	-0.10	0.00	17.51	7.290	-0.13473	7.13269	0.0
34.4359	66.6676	-1.19	-0.10	0.00	17.51	7.290	-0.13722	7.13265	4.0
34.4559	66.6676	-1.19	-0.10	0.00	17.51	7.290	-0.13971	7.13260	0.0
34.4759	66.6676	-1.19	-0.10	0.00	17.51	7.290	-0.14219	7.13255	2.0
34.4959	66.6676	-1.19	-0.10	0.00	17.51	7.290	-0.14468	7.13250	0.0
34.5159	66.6676	-1.19	-0.10	0.00	17.51	7.290	-0.14717	7.13245	4.0
34.5359	66.6676	-1.19	-0.10	0.00	17.51	7.290	-0.14966	7.13240	2.0
34.5559	66.6676	-1.19	-0.10	0.00	17.51	7.290	-0.15215	7.13234	2.0
34.5759	66.6676	-1.19	-0.10	0.00	17.51	7.290	-0.15464	7.13229	0.0
34.5959	66.6676	-1.19	-0.10	0.00	17.51	7.290	-0.15713	7.13223	0.0
34.6159	66.6676	-1.19	-0.10	0.00	17.51	7.290	-0.15962	7.13218	2.0

32.6259	66.6876	-1.19	-0.10	0.00	17.51	7.290	0.08941	7.13530	0.0
32.6459	66.6876	-1.19	-0.10	0.00	17.51	7.290	0.08692	7.13533	2.0
32.6659	66.6876	-1.19	-0.10	0.00	17.51	7.290	0.08443	7.13536	0.0
32.6859	66.6876	-1.19	-0.10	0.00	17.51	7.290	0.08194	7.13539	0.0
32.7059	66.6876	-1.19	-0.10	0.00	17.51	7.290	0.07945	7.13542	0.0
32.7259	66.6876	-1.19	-0.10	0.00	17.51	7.290	0.07695	7.13544	2.0
32.7459	66.6876	-1.19	-0.10	0.00	17.51	7.290	0.07446	7.13547	0.0
32.7659	66.6876	-1.19	-0.10	0.00	17.51	7.290	0.07197	7.13550	2.0
32.7859	66.6876	-1.19	-0.10	0.00	17.51	7.290	0.06948	7.13552	0.0
32.8059	66.6876	-1.19	-0.10	0.00	17.51	7.290	0.06699	7.13554	0.0
32.8259	66.6876	-1.19	-0.10	0.00	17.51	7.290	0.06450	7.13557	0.0
32.8459	66.6876	-1.19	-0.10	0.00	17.51	7.290	0.06201	7.13559	2.0
32.8659	66.6876	-1.19	-0.10	0.00	17.51	7.290	0.05952	7.13561	0.0
32.8859	66.6876	-1.19	-0.10	0.00	17.51	7.290	0.05703	7.13563	2.0
32.9059	66.6876	-1.19	-0.10	0.00	17.51	7.290	0.05454	7.13565	2.0
32.9259	66.6876	-1.19	-0.10	0.00	17.51	7.290	0.05205	7.13567	0.0
32.9459	66.6876	-1.19	-0.10	0.00	17.51	7.290	0.04956	7.13569	0.0
32.9659	66.6876	-1.19	-0.10	0.00	17.51	7.290	0.04706	7.13570	0.0
32.9859	66.6876	-1.19	-0.10	0.00	17.51	7.290	0.04457	7.13572	0.0
33.0059	66.6876	-1.19	-0.10	0.00	17.51	7.290	0.04208	7.13573	0.0
33.0259	66.6876	-1.19	-0.10	0.00	17.51	7.290	0.03959	7.13575	0.0
33.0459	66.6876	-1.19	-0.10	0.00	17.51	7.290	0.03710	7.13576	2.0
33.0659	66.6876	-1.19	-0.10	0.00	17.51	7.290	0.03461	7.13577	0.0
33.0859	66.6876	-1.19	-0.10	0.00	17.51	7.290	0.03212	7.13579	0.0
33.1059	66.6876	-1.19	-0.10	0.00	17.51	7.290	0.02963	7.13580	0.0
33.1259	66.6876	-1.19	-0.10	0.00	17.51	7.290	0.02714	7.13581	2.0
33.1459	66.6876	-1.19	-0.10	0.00	17.51	7.290	0.02465	7.13582	0.0
33.1659	66.6876	-1.19	-0.10	0.00	17.51	7.290	0.02216	7.13582	0.0
33.1859	66.6876	-1.19	-0.10	0.00	17.51	7.290	0.01967	7.13583	0.0
33.2059	66.6876	-1.19	-0.10	0.00	17.51	7.290	0.01717	7.13584	0.0
33.2259	66.6876	-1.19	-0.10	0.00	17.51	7.290	0.01468	7.13584	2.0
33.2459	66.6876	-1.19	-0.10	0.00	17.51	7.290	0.01219	7.13585	0.0
33.2659	66.6876	-1.19	-0.10	0.00	17.51	7.290	0.00970	7.13585	2.0
33.2859	66.6876	-1.19	-0.10	0.00	17.51	7.290	0.00721	7.13585	4.0
33.3059	66.6876	-1.19	-0.10	0.00	17.51	7.290	0.00472	7.13586	0.0
33.3259	66.6876	-1.19	-0.10	0.00	17.51	7.290	0.00223	7.13586	2.0
33.3459	66.6876	-1.19	-0.10	0.00	17.51	7.290	-0.00026	7.13586	0.0
33.3659	66.6876	-1.19	-0.10	0.00	17.51	7.290	-0.00275	7.13586	0.0
33.3859	66.6876	-1.19	-0.10	0.00	17.51	7.290	-0.00524	7.13586	2.0
33.4059	66.6876	-1.19	-0.10	0.00	17.51	7.290	-0.00773	7.13585	0.0
33.4259	66.6876	-1.19	-0.10	0.00	17.51	7.290	-0.01023	7.13585	2.0
33.4459	66.6876	-1.19	-0.10	0.00	17.51	7.290	-0.01272	7.13585	2.0
33.4659	66.6876	-1.19	-0.10	0.00	17.51	7.290	-0.01521	7.13584	0.0
33.4859	66.6876	-1.19	-0.10	0.00	17.51	7.290	-0.01770	7.13584	0.0
33.5059	66.6876	-1.19	-0.10	0.00	17.51	7.290	-0.02019	7.13583	0.0
33.5259	66.6876	-1.19	-0.10	0.00	17.51	7.290	-0.02268	7.13582	0.0
33.5459	66.6876	-1.19	-0.10	0.00	17.51	7.290	-0.02517	7.13581	2.0
33.5659	66.6876	-1.19	-0.10	0.00	17.51	7.290	-0.02766	7.13580	0.0
33.5859	66.6876	-1.19	-0.10	0.00	17.51	7.290	-0.03015	7.13579	4.0
33.6059	66.6876	-1.19	-0.10	0.00	17.51	7.290	-0.03264	7.13578	0.0
33.6259	66.6876	-1.19	-0.10	0.00	17.51	7.290	-0.03513	7.13577	2.0
33.6459	66.6876	-1.19	-0.10	0.00	17.51	7.290	-0.03762	7.13576	0.0
33.6659	66.6876	-1.19	-0.10	0.00	17.51	7.290	-0.04012	7.13575	2.0
33.6859	66.6876	-1.19	-0.10	0.00	17.51	7.290	-0.04261	7.13573	0.0
33.7059	66.6876	-1.19	-0.10	0.00	17.51	7.290	-0.04510	7.13572	2.0
33.7259	66.6876	-1.19	-0.10	0.00	17.51	7.290	-0.04759	7.13570	0.0
33.7459	66.6876	-1.19	-0.10	0.00	17.51	7.290	-0.05008	7.13568	0.0
33.7659	66.6876	-1.19	-0.10	0.00	17.51	7.290	-0.05257	7.13566	0.0
33.7859	66.6876	-1.19	-0.10	0.00	17.51	7.290	-0.05506	7.13565	0.0
33.8059	66.6876	-1.19	-0.10	0.00	17.51	7.290	-0.05755	7.13563	0.0
33.8259	66.6876	-1.19	-0.10	0.00	17.51	7.290	-0.06004	7.13561	0.0
33.8459	66.6876	-1.19	-0.10	0.00	17.51	7.290	-0.06253	7.13558	0.0
33.8659	66.6876	-1.19	-0.10	0.00	17.51	7.290	-0.06502	7.13556	0.0
33.8859	66.6876	-1.19	-0.10	0.00	17.51	7.290	-0.06751	7.13554	0.0
33.9059	66.6876	-1.19	-0.10	0.00	17.51	7.290	-0.07001	7.13551	4.0
33.9259	66.6876	-1.19	-0.10	0.00	17.51	7.290	-0.07250	7.13549	0.0
33.9459	66.6876	-1.19	-0.10	0.00	17.51	7.290	-0.07499	7.13546	0.0
33.9659	66.6876	-1.19	-0.10	0.00	17.51	7.290	-0.07748	7.13544	0.0
33.9859	66.6876	-1.19	-0.10	0.00	17.51	7.290	-0.07997	7.13541	2.0
34.0059	66.6876	-1.19	-0.10	0.00	17.51	7.290	-0.08246	7.13538	2.0
34.0259	66.6876	-1.19	-0.10	0.00	17.51	7.290	-0.08495	7.13535	0.0
34.0459	66.6876	-1.19	-0.10	0.00	17.51	7.290	-0.08744	7.13532	0.0
34.0659	66.6876	-1.19	-0.10	0.00	17.51	7.290	-0.08993	7.13529	0.0
34.0859	66.6876	-1.19	-0.10	0.00	17.51	7.290	-0.09242	7.13526	0.0
34.1059	66.6876	-1.19	-0.10	0.00	17.51	7.290	-0.09491	7.13523	0.0
34.1259	66.6876	-1.19	-0.10	0.00	17.51	7.290	-0.09740	7.13519	0.0
34.1459	66.6876	-1.19	-0.10	0.00	17.51	7.290	-0.09989	7.13516	0.0
34.1659	66.6876	-1.19	-0.10	0.00	17.51	7.290	-0.10238	7.13512	0.0
34.1859	66.6876	-1.19	-0.10	0.00	17.51	7.290	-0.10487	7.13509	0.0
34.2059	66.6876	-1.19	-0.10	0.00	17.51	7.290	-0.10737	7.13505	4.0
34.2259	66.6876	-1.19	-0.10	0.00	17.51	7.290	-0.10986	7.13501	0.0
34.2459	66.6876	-1.19	-0.10	0.00	17.51	7.290	-0.11235	7.13497	0.0
34.2659	66.6876	-1.19	-0.10	0.00	17.51	7.290	-0.11484	7.13493	0.0
34.2859	66.6876	-1.19	-0.10	0.00	17.51	7.290	-0.11733	7.13489	2.0
34.3059	66.6876	-1.19	-0.10	0.00	17.51	7.290	-0.11982	7.13485	0.0
34.3259	66.6876	-1.19	-0.10	0.00	17.51	7.290	-0.12231	7.13481	0.0
34.3459	66.6876	-1.19	-0.10	0.00	17.51	7.290	-0.12480	7.13477	0.0
34.3659	66.6876	-1.19	-0.10	0.00	17.51	7.290	-0.12729	7.13472	0.0
34.3859	66.6876	-1.19	-0.10	0.00	17.51	7.290	-0.12978	7.13468	0.0
34.4059	66.6876	-1.19	-0.10	0.00	17.51	7.290	-0.13227	7.13463	2.0
34.4259	66.6876	-1.19	-0.10	0.00	17.51	7.290	-0.13476	7.13459	0.0
34.4459	66.6876	-1.19	-0.10	0.00	17.51	7.290	-0.13725	7.13454	4.0
34.4659	66.6876	-1.19	-0.10	0.00	17.51	7.290	-0.13974	7.13449	0.0
34.4859	66.6876	-1.19	-0.10	0.00	17.51	7.290	-0.14223	7.13444	4.0
34.5059	66.6876	-1.19	-0.10	0.00	17.51	7.290	-0.14472	7.13439	2.0
34.5259	66.6876	-1.19	-0.10	0.00	17.51	7.290	-0.14721	7.13434	0.0
34.5459	66.6876	-1.19	-0.10	0.00	17.51	7.290	-0.14970	7.13429	0.0
34.5659	66.6876	-1.19	-0.10	0.00	17.51	7.290	-0.15219	7.13423	0.0
34.5859	66.6876	-1.19	-0.10	0.00	17.51	7.290	-0.15468	7.13418	2.0
34.6059	66.6876	-1.19	-0.10	0.00	17.51	7.290	-0.15717	7.13413	2.0
34.6259	66.6876	-1.19	-0.10	0.00	17.51	7.290	-0.15966	7.13407	2.0

32.6359	66.7076	-1.19	-0.10	0.00	17.51	7.290	0.08943	7.13719	0.0
32.6559	66.7076	-1.19	-0.10	0.00	17.51	7.290	0.08694	7.13722	0.0
32.6759	66.7076	-1.19	-0.10	0.00	17.51	7.290	0.08445	7.13725	0.0
32.6959	66.7076	-1.19	-0.10	0.00	17.51	7.290	0.08196	7.13728	2.0
32.7159	66.7076	-1.19	-0.10	0.00	17.51	7.290	0.07947	7.13731	0.0
32.7359	66.7076	-1.19	-0.10	0.00	17.51	7.290	0.07697	7.13734	0.0
32.7559	66.7076	-1.19	-0.10	0.00	17.51	7.290	0.07448	7.13736	0.0
32.7759	66.7076	-1.19	-0.10	0.00	17.51	7.290	0.07199	7.13739	0.0
32.7959	66.7076	-1.19	-0.10	0.00	17.51	7.290	0.06950	7.13741	0.0
32.8159	66.7076	-1.19	-0.10	0.00	17.51	7.290	0.06701	7.13744	0.0
32.8359	66.7076	-1.19	-0.10	0.00	17.51	7.290	0.06452	7.13746	0.0
32.8559	66.7076	-1.19	-0.10	0.00	17.51	7.290	0.06203	7.13748	0.0
32.8759	66.7076	-1.19	-0.10	0.00	17.51	7.290	0.05953	7.13750	0.0
32.8959	66.7076	-1.19	-0.10	0.00	17.51	7.290	0.05704	7.13752	0.0
32.9159	66.7076	-1.19	-0.10	0.00	17.51	7.290	0.05455	7.13754	0.0
32.9359	66.7076	-1.19	-0.10	0.00	17.51	7.290	0.05206	7.13756	2.0
32.9559	66.7076	-1.19	-0.10	0.00	17.51	7.290	0.04957	7.13758	2.0
32.9759	66.7076	-1.19	-0.10	0.00	17.51	7.290	0.04708	7.13760	2.0
32.9959	66.7076	-1.19	-0.10	0.00	17.51	7.290	0.04459	7.13761	0.0
33.0159	66.7076	-1.19	-0.10	0.00	17.51	7.290	0.04209	7.13763	2.0
33.0359	66.7076	-1.19	-0.10	0.00	17.51	7.290	0.03960	7.13764	2.0
33.0559	66.7076	-1.19	-0.10	0.00	17.51	7.290	0.03711	7.13765	0.0
33.0759	66.7076	-1.19	-0.10	0.00	17.51	7.290	0.03462	7.13767	0.0
33.0959	66.7076	-1.19	-0.10	0.00	17.51	7.290	0.03213	7.13768	2.0
33.1159	66.7076	-1.19	-0.10	0.00	17.51	7.290	0.02964	7.13769	0.0
33.1359	66.7076	-1.19	-0.10	0.00	17.51	7.290	0.02715	7.13770	2.0
33.1559	66.7076	-1.19	-0.10	0.00	17.51	7.290	0.02465	7.13771	0.0
33.1759	66.7076	-1.19	-0.10	0.00	17.51	7.290	0.02216	7.13772	2.0
33.1959	66.7076	-1.19	-0.10	0.00	17.51	7.290	0.01967	7.13772	2.0
33.2159	66.7076	-1.19	-0.10	0.00	17.51	7.290	0.01718	7.13773	2.0
33.2359	66.7076	-1.19	-0.10	0.00	17.51	7.290	0.01469	7.13774	0.0
33.2559	66.7076	-1.19	-0.10	0.00	17.51	7.290	0.01220	7.13774	2.0
33.2759	66.7076	-1.19	-0.10	0.00	17.51	7.290	0.00970	7.13774	2.0
33.2959	66.7076	-1.19	-0.10	0.00	17.51	7.290	0.00721	7.13775	0.0
33.3159	66.7076	-1.19	-0.10	0.00	17.51	7.290	0.00472	7.13775	0.0
33.3359	66.7076	-1.19	-0.10	0.00	17.51	7.290	0.00223	7.13775	2.0
33.3559	66.7076	-1.19	-0.10	0.00	17.51	7.290	-0.00026	7.13775	2.0
33.3759	66.7076	-1.19	-0.10	0.00	17.51	7.290	-0.00275	7.13775	0.0
33.3959	66.7076	-1.19	-0.10	0.00	17.51	7.290	-0.00524	7.13775	0.0
33.4159	66.7076	-1.19	-0.10	0.00	17.51	7.290	-0.00774	7.13775	0.0
33.4359	66.7076	-1.19	-0.10	0.00	17.51	7.290	-0.01023	7.13774	2.0
33.4559	66.7076	-1.19	-0.10	0.00	17.51	7.290	-0.01272	7.13774	4.0
33.4759	66.7076	-1.19	-0.10	0.00	17.51	7.290	-0.01521	7.13773	0.0
33.4959	66.7076	-1.19	-0.10	0.00	17.51	7.290	-0.01770	7.13773	4.0
33.5159	66.7076	-1.19	-0.10	0.00	17.51	7.290	-0.02019	7.13772	2.0
33.5359	66.7076	-1.19	-0.10	0.00	17.51	7.290	-0.02269	7.13771	0.0
33.5559	66.7076	-1.19	-0.10	0.00	17.51	7.290	-0.02518	7.13771	0.0
33.5759	66.7076	-1.19	-0.10	0.00	17.51	7.290	-0.02767	7.13770	0.0
33.5959	66.7076	-1.19	-0.10	0.00	17.51	7.290	-0.03016	7.13769	2.0
33.6159	66.7076	-1.19	-0.10	0.00	17.51	7.290	-0.03265	7.13768	0.0
33.6359	66.7076	-1.19	-0.10	0.00	17.51	7.290	-0.03514	7.13766	2.0
33.6559	66.7076	-1.19	-0.10	0.00	17.51	7.290	-0.03763	7.13765	2.0
33.6759	66.7076	-1.19	-0.10	0.00	17.51	7.290	-0.04013	7.13764	2.0
33.6959	66.7076	-1.19	-0.10	0.00	17.51	7.290	-0.04262	7.13762	2.0
33.7159	66.7076	-1.19	-0.10	0.00	17.51	7.290	-0.04511	7.13761	2.0
33.7359	66.7076	-1.19	-0.10	0.00	17.51	7.290	-0.04760	7.13759	0.0
33.7559	66.7076	-1.19	-0.10	0.00	17.51	7.290	-0.05009	7.13758	0.0
[...]
35.5059	69.6076	-1.19	-0.10	0.00	17.51	7.290	-0.09080	7.40931	2.0
35.5259	69.6076	-1.19	-0.10	0.00	17.51	7.290	-0.09338	7.40928	2.0
35.5459	69.6076	-1.19	-0.10	0.00	17.51	7.290	-0.09597	7.40925	0.0
35.5659	69.6076	-1.19	-0.10	0.00	17.51	7.290	-0.09856	7.40921	0.0
35.5859	69.6076	-1.19	-0.10	0.00	17.51	7.290	-0.10114	7.40918	0.0
35.6059	69.6076	-1.19	-0.10	0.00	17.51	7.290	-0.10373	7.40914	2.0
35.6259	69.6076	-1.19	-0.10	0.00	17.51	7.290	-0.10632	7.40910	0.0
35.6459	69.6076	-1.19	-0.10	0.00	17.51	7.290	-0.10890	7.40907	2.0
35.6659	69.6076	-1.19	-0.10	0.00	17.51	7.290	-0.11149	7.40903	0.0
35.6859	69.6076	-1.19	-0.10	0.00	17.51	7.290	-0.11407	7.40899	0.0
35.7059	69.6076	-1.19	-0.10	0.00	17.51	7.290	-0.11666	7.40895	4.0
35.7259	69.6076	-1.19	-0.10	0.00	17.51	7.290	-0.11925	7.40891	2.0
35.7459	69.6076	-1.19	-0.10	0.00	17.51	7.290	-0.12183	7.40887	0.0
35.7659	69.6076	-1.19	-0.10	0.00	17.51	7.290	-0.12442	7.40882	0.0
35.7859	69.6076	-1.19	-0.10	0.00	17.51	7.290	-0.12701	7.40878	2.0
35.8059	69.6076	-1.19	-0.10	0.00	17.51	7.290	-0.12959	7.40873	2.0
35.8259	69.6076	-1.19	-0.10	0.00	17.51	7.290	-0.13218	7.40869	2.0
35.8459	69.6076	-1.19	-0.10	0.00	17.51	7.290	-0.13476	7.40864	2.0
35.8659	69.6076	-1.19	-0.10	0.00	17.51	7.290	-0.13735	7.40859	2.0
35.8859	69.6076	-1.19	-0.10	0.00	17.51	7.290	-0.13994	7.40855	0.0
35.9059	69.6076	-1.19	-0.10	0.00	17.51	7.290	-0.14252	7.40850	4.0
35.9259	69.6076	-1.19	-0.10	0.00	17.51	7.290	-0.14511	7.40845	0.0
35.9459	69.6076	-1.19	-0.10	0.00	17.51	7.290	-0.14769	7.40840	2.0
35.9659	69.6076	-1.19	-0.10	0.00	17.51	7.290	-0.15028	7.40834	0.0
35.9859	69.6076	-1.19	-0.10	0.00	17.51	7.290	-0.15287	7.40829	0.0
36.0059	69.6076	-1.19	-0.10	0.00	17.51	7.290	-0.15545	7.40824	2.0
36.0259	69.6076	-1.19	-0.10	0.00	17.51	7.290	-0.15804	7.40818	0.0
36.0459	69.6076	-1.19	-0.10	0.00	17.51	7.290	-0.16062	7.40813	0.0
36.0659	69.6076	-1.19	-0.10	0.00	17.51	7.290	-0.16321	7.40807	0.0
36.0859	69.6076	-1.19	-0.10	0.00	17.51	7.290	-0.16580	7.40801	6.0

34.0959	69.6276	-1.19	-0.10	0.00	17.51	7.290	0.09286	7.41115	0.0
34.1159	69.6276	-1.19	-0.10	0.00	17.51	7.290	0.09028	7.41118	0.0
34.1359	69.6276	-1.19	-0.10	0.00	17.51	7.290	0.08769	7.41121	2.0
34.1559	69.6276	-1.19	-0.10	0.00	17.51	7.290	0.08510	7.41124	0.0
34.1759	69.6276	-1.19	-0.10	0.00	17.51	7.290	0.08252	7.41127	0.0
34.1959	69.6276	-1.19	-0.10	0.00	17.51	7.290	0.07993	7.41130	2.0
34.2159	69.6276	-1.19	-0.10	0.00	17.51	7.290	0.07734	7.41132	2.0
34.2359	69.6276	-1.19	-0.10	0.00	17.51	7.290	0.07476	7.41135	0.0
34.2559	69.6276	-1.19	-0.10	0.00	17.51	7.290	0.07217	7.41138	4.0
34.2759	69.6276	-1.19	-0.10	0.00	17.51	7.290	0.06958	7.41140	0.0
34.2959	69.6276	-1.19	-0.10	0.00	17.51	7.290	0.06699	7.41143	2.0
34.3159	69.6276	-1.19	-0.10	0.00	17.51	7.290	0.06441	7.41145	2.0
34.3359	69.6276	-1.19	-0.10	0.00	17.51	7.290	0.06182	7.41147	2.0
34.3559	69.6276	-1.19	-0.10	0.00	17.51	7.290	0.05923	7.41149	2.0
34.3759	69.6276	-1.19	-0.10	0.00	17.51	7.290	0.05665	7.41151	2.0
34.3959	69.6276	-1.19	-0.10	0.00	17.51	7.290	0.05406	7.41153	2.0
34.4159	69.6276	-1.19	-0.10	0.00	17.51	7.290	0.05147	7.41155	0.0
34.4359	69.6276	-1.19	-0.10	0.00	17.51	7.290	0.04888	7.41157	0.0
34.4559	69.6276	-1.19	-0.10	0.00	17.51	7.290	0.04630	7.41158	2.0
34.4759	69.6276	-1.19	-0.10	0.00	17.51	7.290	0.04371	7.41160	0.0
34.4959	69.6276	-1.19	-0.10	0.00	17.51	7.290	0.04112	7.41161	2.0
34.5159	69.6276	-1.19	-0.10	0.00	17.51	7.290	0.03854	7.41163	4.0
34.5359	69.6276	-1.19	-0.10	0.00	17.51	7.290	0.03595	7.41164	2.0
34.5559	69.6276	-1.19	-0.10	0.00	17.51	7.290	0.03336	7.41165	0.0
34.5759	69.6276	-1.19	-0.10	0.00	17.51	7.290	0.03077	7.41166	2.0
34.5959	69.6276	-1.19	-0.10	0.00	17.51	7.290	0.02819	7.41167	0.0
34.6159	69.6276	-1.19	-0.10	0.00	17.51	7.290	0.02560	7.41168	0.0
34.6359	69.6276	-1.19	-0.10	0.00	17.51	7.290	0.02301	7.41169	4.0
34.6559	69.6276	-1.19	-0.10	0.00	17.51	7.290	0.02043	7.41170	4.0
34.6759	69.6276	-1.19	-0.10	0.00	17.51	7.290	0.01784	7.41171	2.0
34.6959	69.6276	-1.19	-0.10	0.00	17.51	7.290	0.01525	7.41171	0.0
34.7159	69.6276	-1.19	-0.10	0.00	17.51	7.290	0.01266	7.41172	0.0
34.7359	69.6276	-1.19	-0.10	0.00	17.51	7.290	0.01008	7.41172	0.0
34.7559	69.6276	-1.19	-0.10	0.00	17.51	7.290	0.00749	7.41172	4.0
34.7759	69.6276	-1.19	-0.10	0.00	17.51	7.290	0.00490	7.41173	4.0
34.7959	69.6276	-1.19	-0.10	0.00	17.51	7.290	0.00232	7.41173	0.0
34.8159	69.6276	-1.19	-0.10	0.00	17.51	7.290	-0.00027	7.41173	0.0
34.8359	69.6276	-1.19	-0.10	0.00	17.51	7.290	-0.00286	7.41173	8.0
34.8559	69.6276	-1.19	-0.10	0.00	17.51	7.290	-0.00545	7.41173	20.0
34.8759	69.6276	-1.19	-0.10	0.00	17.51	7.290	-0.00803	7.41172	2.0
34.8959	69.6276	-1.19	-0.10	0.00	17.51	7.290	-0.01062	7.41172	4.0
34.9159	69.6276	-1.19	-0.10	0.00	17.51	7.290	-0.01321	7.41172	0.0
34.9359	69.6276	-1.19	-0.10	0.00	17.51	7.290	-0.01579	7.41171	0.0
34.9559	69.6276	-1.19	-0.10	0.00	17.51	7.290	-0.01838	7.41171	0.0
34.9759	69.6276	-1.19	-0.10	0.00	17.51	7.290	-0.02097	7.41170	2.0
34.9959	69.6276	-1.19	-0.10	0.00	17.51	7.290	-0.02356	7.41169	4.0
35.0159	69.6276	-1.19	-0.10	0.00	17.51	7.290	-0.02614	7.41168	4.0
35.0359	69.6276	-1.19	-0.10	0.00	17.51	7.290	-0.02873	7.41167	2.0
35.0559	69.6276	-1.19	-0.10	0.00	17.51	7.290	-0.03132	7.41166	2.0
35.0759	69.6276	-1.19	-0.10	0.00	17.51	7.290	-0.03390	7.41165	2.0
35.0959	69.6276	-1.19	-0.10	0.00	17.51	7.290	-0.03649	7.41164	2.0
35.1159	69.6276	-1.19	-0.10	0.00	17.51	7.290	-0.03908	7.41163	8.0
35.1359	69.6276	-1.19	-0.10	0.00	17.51	7.290	-0.04167	7.41161	4.0
35.1559	69.6276	-1.19	-0.10	0.00	17.51	7.290	-0.04425	7.41160	2.0
35.1759	69.6276	-1.19	-0.10	0.00	17.51	7.290	-0.04684	7.41158	4.0
35.1959	69.6276	-1.19	-0.10	0.00	17.51	7.290	-0.04943	7.41156	2.0
35.2159	69.6276	-1.19	-0.10	0.00	17.51	7.290	-0.05201	7.41155	0.0
35.2359	69.6276	-1.19	-0.10	0.00	17.51	7.290	-0.05460	7.41153	6.0
35.2559	69.6276	-1.19	-0.10	0.00	17.51	7.290	-0.05719	7.41151	2.0
35.2759	69.6276	-1.19	-0.10	0.00	17.51	7.290	-0.05978	7.41149	0.0
35.2959	69.6276	-1.19	-0.10	0.00	17.51	7.290	-0.06236	7.41147	4.0
35.3159	69.6276	-1.19	-0.10	0.00	17.51	7.290	-0.06495	7.41144	0.0
35.3359	69.6276	-1.19	-0.10	0.00	17.51	7.290	-0.06754	7.41142	0.0
35.3559	69.6276	-1.19	-0.10	0.00	17.51	7.290	-0.07012	7.41140	2.0
35.3759	69.6276	-1.19	-0.10	0.00	17.51	7.290	-0.07271	7.41137	0.0
35.3959	69.6276	-1.19	-0.10	0.00	17.51	7.290	-0.07530	7.41135	4.0
35.4159	69.6276	-1.19	-0.10	0.00	17.51	7.290	-0.07789	7.41132	0.0
35.4359	69.6276	-1.19	-0.10	0.00	17.51	7.290	-0.08047	7.41129	0.0
35.4559	69.6276	-1.19	-0.10	0.00	17.51	7.290	-0.08306	7.41126	0.0
35.4759	69.6276	-1.19	-0.10	0.00	17.51	7.290	-0.08565	7.41123	2.0
35.4959	69.6276	-1.19	-0.10	0.00	17.51	7.290	-0.08823	7.41120	2.0
35.5159	69.6276	-1.19	-0.10	0.00	17.51	7.290	-0.09082	7.41117	0.0
35.5359	69.6276	-1.19	-0.10	0.00	17.51	7.290	-0.09341	7.41114	2.0
35.5559	69.6276	-1.19	-0.10	0.00	17.51	7.290	-0.09599	7.41111	0.0
35.5759	69.6276	-1.19	-0.10	0.00	17.51	7.290	-0.09858	7.41107	2.0
35.5959	69.6276	-1.19	-0.10	0.00	17.51	7.290	-0.10117	7.41104	0.0
35.6159	69.6276	-1.19	-0.10	0.00	17.51	7.290	-0.10376	7.41100	6.0
35.6359	69.6276	-1.19	-0.10	0.00	17.51	7.290	-0.10634	7.41097	0.0
35.6559	69.6276	-1.19	-0.10	0.00	17.51	7.290	-0.10893	7.41093	0.0
35.6759	69.6276	-1.19	-0.10	0.00	17.51	7.290	-0.11152	7.41089	0.0
35.6959	69.6276	-1.19	-0.10	0.00	17.51	7.290	-0.11410	7.41085	0.0
35.7159	69.6276	-1.19	-0.10	0.00	17.51	7.290	-0.11669	7.41081	4.0
35.7359	69.6276	-1.19	-0.10	0.00	17.51	7.290	-0.11928	7.41077	4.0
35.7559	69.6276	-1.19	-0.10	0.00	17.51	7.290	-0.12186	7.41073	0.0
35.7759	69.6276	-1.19	-0.10	0.00	17.51	7.290	-0.12445	7.41068	0.0
35.7959	69.6276	-1.19	-0.10	0.00	17.51	7.290	-0.12704	7.41064	0.0
35.8159	69.6276	-1.19	-0.10	0.00	17.51	7.290	-0.12962	7.41059	0.0
35.8359	69.6276	-1.19	-0.10	0.00	17.51	7.290	-0.13221	7.41055	2.0
35.8559	69.6276	-1.19	-0.10	0.00	17.51	7.290	-0.13480	7.41050	6.0
35.8759	69.6276	-1.19	-0.10	0.00	17.51	7.290	-0.13738	7.41045	0.0
35.8959	69.6276	-1.19	-0.10	0.00	17.51	7.290	-0.13997	7.41041	0.0
35.9159	69.6276	-1.19	-0.10	0.00	17.51	7.290	-0.14256	7.41036	0.0
35.9359	69.6276	-1.19	-0.10	0.00	17.51	7.290	-0.14514	7.41031	0.0
35.9559	69.6276	-1.19	-0.10	0.00	17.51	7.290	-0.14773	7.41026	2.0
35.9759	69.6276	-1.19	-0.10	0.00	17.51	7.290	-0.15032	7.41020	2.0
35.9959	69.6276	-1.19	-0.10	0.00	17.51	7.290	-0.15290	7.41015	0.0
36.0159	69.6276	-1.19	-0.10	0.00	17.51	7.290	-0.15549	7.41010	4.0
36.0359	69.6276	-1.19	-0.10	0.00	17.51	7.290	-0.15808	7.41004	0.0
36.0559	69.6276	-1.19	-0.10	0.00	17.51	7.290	-0.16066	7.40999	0.0
36.0759	69.6276	-1.19	-0.10	0.00	17.51	7.290	-0.16325	7.40993	0.0
36.0959	69.6276	-1.19	-0.10	0.00	17.51	7.290	-0.16584	7.40987	0.0