File: Data/Omega/1.5deg-2.0deg-rsm-2h30mins_11355-as-grown_004_w-scans.dat
# filename: 1.5deg-2.0deg-rsm-2h30mins_11355-as-grown_004.dat
# reflection: (004)
# type: rotated into a series of omega scans
# x-axis: Omega_2Theta
#
# Omega	2Theta	Phi  	Chi   	X    	Y    	Z    	q_para	q_perp	Intensity
# [deg]	[deg] 	[deg]	[deg] 	[mm] 	[mm] 	[mm] 	[nm-1]	[nm-1]	[counts/s]
32.1686	66.6692	0.46	0.06	-30.00	-20.00	7.373	0.14517	7.13264	0.0
32.1886	66.6692	0.46	0.06	-30.00	-20.00	7.373	0.14268	7.13269	4.0
32.2086	66.6692	0.46	0.06	-30.00	-20.00	7.373	0.14019	7.13274	0.0
32.2286	66.6692	0.46	0.06	-30.00	-20.00	7.373	0.13770	7.13279	0.0
32.2486	66.6692	0.46	0.06	-30.00	-20.00	7.373	0.13521	7.13284	2.0
32.2686	66.6692	0.46	0.06	-30.00	-20.00	7.373	0.13272	7.13288	0.0
32.2886	66.6692	0.46	0.06	-30.00	-20.00	7.373	0.13023	7.13293	2.0
32.3086	66.6692	0.46	0.06	-30.00	-20.00	7.373	0.12774	7.13297	0.0
32.3286	66.6692	0.46	0.06	-30.00	-20.00	7.373	0.12525	7.13302	0.0
32.3486	66.6692	0.46	0.06	-30.00	-20.00	7.373	0.12276	7.13306	4.0
32.3686	66.6692	0.46	0.06	-30.00	-20.00	7.373	0.12027	7.13310	0.0
32.3886	66.6692	0.46	0.06	-30.00	-20.00	7.373	0.11778	7.13314	2.0
32.4086	66.6692	0.46	0.06	-30.00	-20.00	7.373	0.11529	7.13318	0.0
32.4286	66.6692	0.46	0.06	-30.00	-20.00	7.373	0.11280	7.13322	0.0
32.4486	66.6692	0.46	0.06	-30.00	-20.00	7.373	0.11031	7.13326	0.0
32.4686	66.6692	0.46	0.06	-30.00	-20.00	7.373	0.10782	7.13330	0.0
32.4886	66.6692	0.46	0.06	-30.00	-20.00	7.373	0.10533	7.13334	0.0
32.5086	66.6692	0.46	0.06	-30.00	-20.00	7.373	0.10284	7.13338	2.0
32.5286	66.6692	0.46	0.06	-30.00	-20.00	7.373	0.10035	7.13341	0.0
32.5486	66.6692	0.46	0.06	-30.00	-20.00	7.373	0.09786	7.13345	4.0
32.5686	66.6692	0.46	0.06	-30.00	-20.00	7.373	0.09537	7.13348	0.0
32.5886	66.6692	0.46	0.06	-30.00	-20.00	7.373	0.09288	7.13351	2.0
32.6086	66.6692	0.46	0.06	-30.00	-20.00	7.373	0.09039	7.13354	0.0
32.6286	66.6692	0.46	0.06	-30.00	-20.00	7.373	0.08790	7.13358	0.0
32.6486	66.6692	0.46	0.06	-30.00	-20.00	7.373	0.08541	7.13361	0.0
32.6686	66.6692	0.46	0.06	-30.00	-20.00	7.373	0.08292	7.13363	0.0
32.6886	66.6692	0.46	0.06	-30.00	-20.00	7.373	0.08043	7.13366	0.0
32.7086	66.6692	0.46	0.06	-30.00	-20.00	7.373	0.07794	7.13369	0.0
32.7286	66.6692	0.46	0.06	-30.00	-20.00	7.373	0.07545	7.13372	2.0
32.7486	66.6692	0.46	0.06	-30.00	-20.00	7.373	0.07296	7.13374	0.0
32.7686	66.6692	0.46	0.06	-30.00	-20.00	7.373	0.07047	7.13377	2.0
32.7886	66.6692	0.46	0.06	-30.00	-20.00	7.373	0.06798	7.13379	2.0
32.8086	66.6692	0.46	0.06	-30.00	-20.00	7.373	0.06549	7.13382	0.0
32.8286	66.6692	0.46	0.06	-30.00	-20.00	7.373	0.06300	7.13384	4.0
32.8486	66.6692	0.46	0.06	-30.00	-20.00	7.373	0.06051	7.13386	4.0
32.8686	66.6692	0.46	0.06	-30.00	-20.00	7.373	0.05802	7.13388	2.0
32.8886	66.6692	0.46	0.06	-30.00	-20.00	7.373	0.05553	7.13390	0.0
32.9086	66.6692	0.46	0.06	-30.00	-20.00	7.373	0.05304	7.13392	2.0
32.9286	66.6692	0.46	0.06	-30.00	-20.00	7.373	0.05055	7.13394	2.0
32.9486	66.6692	0.46	0.06	-30.00	-20.00	7.373	0.04806	7.13395	2.0
32.9686	66.6692	0.46	0.06	-30.00	-20.00	7.373	0.04557	7.13397	4.0
32.9886	66.6692	0.46	0.06	-30.00	-20.00	7.373	0.04308	7.13399	0.0
33.0086	66.6692	0.46	0.06	-30.00	-20.00	7.373	0.04059	7.13400	0.0
33.0286	66.6692	0.46	0.06	-30.00	-20.00	7.373	0.03810	7.13401	0.0
33.0486	66.6692	0.46	0.06	-30.00	-20.00	7.373	0.03561	7.13403	2.0
33.0686	66.6692	0.46	0.06	-30.00	-20.00	7.373	0.03312	7.13404	0.0
33.0886	66.6692	0.46	0.06	-30.00	-20.00	7.373	0.03063	7.13405	0.0
33.1086	66.6692	0.46	0.06	-30.00	-20.00	7.373	0.02814	7.13406	0.0
33.1286	66.6692	0.46	0.06	-30.00	-20.00	7.373	0.02565	7.13407	2.0
33.1486	66.6692	0.46	0.06	-30.00	-20.00	7.373	0.02316	7.13408	2.0
33.1686	66.6692	0.46	0.06	-30.00	-20.00	7.373	0.02067	7.13409	0.0
33.1886	66.6692	0.46	0.06	-30.00	-20.00	7.373	0.01818	7.13409	0.0
33.2086	66.6692	0.46	0.06	-30.00	-20.00	7.373	0.01569	7.13410	0.0
33.2286	66.6692	0.46	0.06	-30.00	-20.00	7.373	0.01320	7.13410	2.0
33.2486	66.6692	0.46	0.06	-30.00	-20.00	7.373	0.01071	7.13411	0.0
33.2686	66.6692	0.46	0.06	-30.00	-20.00	7.373	0.00822	7.13411	2.0
33.2886	66.6692	0.46	0.06	-30.00	-20.00	7.373	0.00573	7.13411	2.0
33.3086	66.6692	0.46	0.06	-30.00	-20.00	7.373	0.00324	7.13412	4.0
33.3286	66.6692	0.46	0.06	-30.00	-20.00	7.373	0.00075	7.13412	0.0
33.3486	66.6692	0.46	0.06	-30.00	-20.00	7.373	-0.00174	7.13412	6.0
33.3686	66.6692	0.46	0.06	-30.00	-20.00	7.373	-0.00423	7.13412	2.0
33.3886	66.6692	0.46	0.06	-30.00	-20.00	7.373	-0.00672	7.13411	0.0
33.4086	66.6692	0.46	0.06	-30.00	-20.00	7.373	-0.00921	7.13411	2.0
33.4286	66.6692	0.46	0.06	-30.00	-20.00	7.373	-0.01170	7.13411	4.0
33.4486	66.6692	0.46	0.06	-30.00	-20.00	7.373	-0.01419	7.13410	2.0
33.4686	66.6692	0.46	0.06	-30.00	-20.00	7.373	-0.01668	7.13410	0.0
33.4886	66.6692	0.46	0.06	-30.00	-20.00	7.373	-0.01918	7.13409	0.0
33.5086	66.6692	0.46	0.06	-30.00	-20.00	7.373	-0.02167	7.13408	2.0
33.5286	66.6692	0.46	0.06	-30.00	-20.00	7.373	-0.02416	7.13408	0.0
33.5486	66.6692	0.46	0.06	-30.00	-20.00	7.373	-0.02665	7.13407	2.0
33.5686	66.6692	0.46	0.06	-30.00	-20.00	7.373	-0.02914	7.13406	0.0
33.5886	66.6692	0.46	0.06	-30.00	-20.00	7.373	-0.03163	7.13405	0.0
33.6086	66.6692	0.46	0.06	-30.00	-20.00	7.373	-0.03412	7.13404	0.0
33.6286	66.6692	0.46	0.06	-30.00	-20.00	7.373	-0.03661	7.13402	0.0
33.6486	66.6692	0.46	0.06	-30.00	-20.00	7.373	-0.03910	7.13401	2.0
33.6686	66.6692	0.46	0.06	-30.00	-20.00	7.373	-0.04159	7.13400	0.0
33.6886	66.6692	0.46	0.06	-30.00	-20.00	7.373	-0.04408	7.13398	0.0
33.7086	66.6692	0.46	0.06	-30.00	-20.00	7.373	-0.04657	7.13396	2.0
33.7286	66.6692	0.46	0.06	-30.00	-20.00	7.373	-0.04906	7.13395	2.0
33.7486	66.6692	0.46	0.06	-30.00	-20.00	7.373	-0.05155	7.13393	0.0
33.7686	66.6692	0.46	0.06	-30.00	-20.00	7.373	-0.05404	7.13391	0.0
33.7886	66.6692	0.46	0.06	-30.00	-20.00	7.373	-0.05653	7.13389	0.0
33.8086	66.6692	0.46	0.06	-30.00	-20.00	7.373	-0.05902	7.13387	2.0
33.8286	66.6692	0.46	0.06	-30.00	-20.00	7.373	-0.06151	7.13385	0.0
33.8486	66.6692	0.46	0.06	-30.00	-20.00	7.373	-0.06400	7.13383	0.0
33.8686	66.6692	0.46	0.06	-30.00	-20.00	7.373	-0.06649	7.13381	0.0
33.8886	66.6692	0.46	0.06	-30.00	-20.00	7.373	-0.06898	7.13378	0.0
33.9086	66.6692	0.46	0.06	-30.00	-20.00	7.373	-0.07147	7.13376	2.0
33.9286	66.6692	0.46	0.06	-30.00	-20.00	7.373	-0.07396	7.13373	0.0
33.9486	66.6692	0.46	0.06	-30.00	-20.00	7.373	-0.07645	7.13371	2.0
33.9686	66.6692	0.46	0.06	-30.00	-20.00	7.373	-0.07894	7.13368	2.0
33.9886	66.6692	0.46	0.06	-30.00	-20.00	7.373	-0.08143	7.13365	0.0
34.0086	66.6692	0.46	0.06	-30.00	-20.00	7.373	-0.08392	7.13362	0.0
34.0286	66.6692	0.46	0.06	-30.00	-20.00	7.373	-0.08641	7.13359	0.0
34.0486	66.6692	0.46	0.06	-30.00	-20.00	7.373	-0.08890	7.13356	0.0
34.0686	66.6692	0.46	0.06	-30.00	-20.00	7.373	-0.09139	7.13353	2.0
34.0886	66.6692	0.46	0.06	-30.00	-20.00	7.373	-0.09388	7.13350	0.0
34.1086	66.6692	0.46	0.06	-30.00	-20.00	7.373	-0.09637	7.13347	0.0
34.1286	66.6692	0.46	0.06	-30.00	-20.00	7.373	-0.09886	7.13343	6.0
34.1486	66.6692	0.46	0.06	-30.00	-20.00	7.373	-0.10135	7.13340	2.0
34.1686	66.6692	0.46	0.06	-30.00	-20.00	7.373	-0.10384	7.13336	2.0

32.1786	66.6892	0.46	0.06	-30.00	-20.00	7.373	0.14521	7.13453	0.0
32.1986	66.6892	0.46	0.06	-30.00	-20.00	7.373	0.14272	7.13458	0.0
32.2186	66.6892	0.46	0.06	-30.00	-20.00	7.373	0.14023	7.13463	2.0
32.2386	66.6892	0.46	0.06	-30.00	-20.00	7.373	0.13774	7.13468	2.0
32.2586	66.6892	0.46	0.06	-30.00	-20.00	7.373	0.13525	7.13473	0.0
32.2786	66.6892	0.46	0.06	-30.00	-20.00	7.373	0.13276	7.13477	4.0
32.2986	66.6892	0.46	0.06	-30.00	-20.00	7.373	0.13027	7.13482	0.0
32.3186	66.6892	0.46	0.06	-30.00	-20.00	7.373	0.12778	7.13487	0.0
32.3386	66.6892	0.46	0.06	-30.00	-20.00	7.373	0.12529	7.13491	0.0
32.3586	66.6892	0.46	0.06	-30.00	-20.00	7.373	0.12280	7.13495	2.0
32.3786	66.6892	0.46	0.06	-30.00	-20.00	7.373	0.12031	7.13500	0.0
32.3986	66.6892	0.46	0.06	-30.00	-20.00	7.373	0.11782	7.13504	4.0
32.4186	66.6892	0.46	0.06	-30.00	-20.00	7.373	0.11533	7.13508	0.0
32.4386	66.6892	0.46	0.06	-30.00	-20.00	7.373	0.11283	7.13512	0.0
32.4586	66.6892	0.46	0.06	-30.00	-20.00	7.373	0.11034	7.13516	2.0
32.4786	66.6892	0.46	0.06	-30.00	-20.00	7.373	0.10785	7.13519	2.0
32.4986	66.6892	0.46	0.06	-30.00	-20.00	7.373	0.10536	7.13523	2.0
32.5186	66.6892	0.46	0.06	-30.00	-20.00	7.373	0.10287	7.13527	0.0
32.5386	66.6892	0.46	0.06	-30.00	-20.00	7.373	0.10038	7.13530	0.0
32.5586	66.6892	0.46	0.06	-30.00	-20.00	7.373	0.09789	7.13534	0.0
32.5786	66.6892	0.46	0.06	-30.00	-20.00	7.373	0.09540	7.13537	0.0
32.5986	66.6892	0.46	0.06	-30.00	-20.00	7.373	0.09291	7.13540	0.0
32.6186	66.6892	0.46	0.06	-30.00	-20.00	7.373	0.09042	7.13544	0.0
32.6386	66.6892	0.46	0.06	-30.00	-20.00	7.373	0.08793	7.13547	0.0
32.6586	66.6892	0.46	0.06	-30.00	-20.00	7.373	0.08544	7.13550	2.0
32.6786	66.6892	0.46	0.06	-30.00	-20.00	7.373	0.08295	7.13553	0.0
32.6986	66.6892	0.46	0.06	-30.00	-20.00	7.373	0.08046	7.13556	0.0
32.7186	66.6892	0.46	0.06	-30.00	-20.00	7.373	0.07796	7.13558	0.0
32.7386	66.6892	0.46	0.06	-30.00	-20.00	7.373	0.07547	7.13561	0.0
32.7586	66.6892	0.46	0.06	-30.00	-20.00	7.373	0.07298	7.13564	0.0
32.7786	66.6892	0.46	0.06	-30.00	-20.00	7.373	0.07049	7.13566	2.0
32.7986	66.6892	0.46	0.06	-30.00	-20.00	7.373	0.06800	7.13569	0.0
32.8186	66.6892	0.46	0.06	-30.00	-20.00	7.373	0.06551	7.13571	0.0
32.8386	66.6892	0.46	0.06	-30.00	-20.00	7.373	0.06302	7.13573	2.0
32.8586	66.6892	0.46	0.06	-30.00	-20.00	7.373	0.06053	7.13575	0.0
32.8786	66.6892	0.46	0.06	-30.00	-20.00	7.373	0.05804	7.13577	0.0
32.8986	66.6892	0.46	0.06	-30.00	-20.00	7.373	0.05555	7.13579	2.0
32.9186	66.6892	0.46	0.06	-30.00	-20.00	7.373	0.05306	7.13581	0.0
32.9386	66.6892	0.46	0.06	-30.00	-20.00	7.373	0.05057	7.13583	0.0
32.9586	66.6892	0.46	0.06	-30.00	-20.00	7.373	0.04807	7.13585	2.0
32.9786	66.6892	0.46	0.06	-30.00	-20.00	7.373	0.04558	7.13586	0.0
32.9986	66.6892	0.46	0.06	-30.00	-20.00	7.373	0.04309	7.13588	0.0
33.0186	66.6892	0.46	0.06	-30.00	-20.00	7.373	0.04060	7.13589	2.0
33.0386	66.6892	0.46	0.06	-30.00	-20.00	7.373	0.03811	7.13591	2.0
33.0586	66.6892	0.46	0.06	-30.00	-20.00	7.373	0.03562	7.13592	0.0
33.0786	66.6892	0.46	0.06	-30.00	-20.00	7.373	0.03313	7.13593	0.0
33.0986	66.6892	0.46	0.06	-30.00	-20.00	7.373	0.03064	7.13594	2.0
33.1186	66.6892	0.46	0.06	-30.00	-20.00	7.373	0.02815	7.13595	2.0
33.1386	66.6892	0.46	0.06	-30.00	-20.00	7.373	0.02566	7.13596	0.0
33.1586	66.6892	0.46	0.06	-30.00	-20.00	7.373	0.02317	7.13597	0.0
33.1786	66.6892	0.46	0.06	-30.00	-20.00	7.373	0.02067	7.13598	2.0
33.1986	66.6892	0.46	0.06	-30.00	-20.00	7.373	0.01818	7.13599	0.0
33.2186	66.6892	0.46	0.06	-30.00	-20.00	7.373	0.01569	7.13599	0.0
33.2386	66.6892	0.46	0.06	-30.00	-20.00	7.373	0.01320	7.13600	0.0
33.2586	66.6892	0.46	0.06	-30.00	-20.00	7.373	0.01071	7.13600	2.0
33.2786	66.6892	0.46	0.06	-30.00	-20.00	7.373	0.00822	7.13600	0.0
33.2986	66.6892	0.46	0.06	-30.00	-20.00	7.373	0.00573	7.13601	2.0
33.3186	66.6892	0.46	0.06	-30.00	-20.00	7.373	0.00324	7.13601	0.0
33.3386	66.6892	0.46	0.06	-30.00	-20.00	7.373	0.00075	7.13601	0.0
33.3586	66.6892	0.46	0.06	-30.00	-20.00	7.373	-0.00174	7.13601	0.0
33.3786	66.6892	0.46	0.06	-30.00	-20.00	7.373	-0.00423	7.13601	0.0
33.3986	66.6892	0.46	0.06	-30.00	-20.00	7.373	-0.00673	7.13601	0.0
33.4186	66.6892	0.46	0.06	-30.00	-20.00	7.373	-0.00922	7.13600	2.0
33.4386	66.6892	0.46	0.06	-30.00	-20.00	7.373	-0.01171	7.13600	0.0
33.4586	66.6892	0.46	0.06	-30.00	-20.00	7.373	-0.01420	7.13600	2.0
33.4786	66.6892	0.46	0.06	-30.00	-20.00	7.373	-0.01669	7.13599	0.0
33.4986	66.6892	0.46	0.06	-30.00	-20.00	7.373	-0.01918	7.13598	2.0
33.5186	66.6892	0.46	0.06	-30.00	-20.00	7.373	-0.02167	7.13598	2.0
33.5386	66.6892	0.46	0.06	-30.00	-20.00	7.373	-0.02416	7.13597	2.0
33.5586	66.6892	0.46	0.06	-30.00	-20.00	7.373	-0.02665	7.13596	0.0
33.5786	66.6892	0.46	0.06	-30.00	-20.00	7.373	-0.02914	7.13595	4.0
33.5986	66.6892	0.46	0.06	-30.00	-20.00	7.373	-0.03163	7.13594	2.0
33.6186	66.6892	0.46	0.06	-30.00	-20.00	7.373	-0.03413	7.13593	2.0
33.6386	66.6892	0.46	0.06	-30.00	-20.00	7.373	-0.03662	7.13592	2.0
33.6586	66.6892	0.46	0.06	-30.00	-20.00	7.373	-0.03911	7.13590	0.0
33.6786	66.6892	0.46	0.06	-30.00	-20.00	7.373	-0.04160	7.13589	2.0
33.6986	66.6892	0.46	0.06	-30.00	-20.00	7.373	-0.04409	7.13587	2.0
33.7186	66.6892	0.46	0.06	-30.00	-20.00	7.373	-0.04658	7.13586	0.0
33.7386	66.6892	0.46	0.06	-30.00	-20.00	7.373	-0.04907	7.13584	2.0
33.7586	66.6892	0.46	0.06	-30.00	-20.00	7.373	-0.05156	7.13582	2.0
33.7786	66.6892	0.46	0.06	-30.00	-20.00	7.373	-0.05405	7.13580	0.0
33.7986	66.6892	0.46	0.06	-30.00	-20.00	7.373	-0.05654	7.13579	2.0
33.8186	66.6892	0.46	0.06	-30.00	-20.00	7.373	-0.05903	7.13577	2.0
33.8386	66.6892	0.46	0.06	-30.00	-20.00	7.373	-0.06153	7.13574	0.0
33.8586	66.6892	0.46	0.06	-30.00	-20.00	7.373	-0.06402	7.13572	2.0
33.8786	66.6892	0.46	0.06	-30.00	-20.00	7.373	-0.06651	7.13570	2.0
33.8986	66.6892	0.46	0.06	-30.00	-20.00	7.373	-0.06900	7.13568	2.0
33.9186	66.6892	0.46	0.06	-30.00	-20.00	7.373	-0.07149	7.13565	2.0
33.9386	66.6892	0.46	0.06	-30.00	-20.00	7.373	-0.07398	7.13563	0.0
33.9586	66.6892	0.46	0.06	-30.00	-20.00	7.373	-0.07647	7.13560	0.0
33.9786	66.6892	0.46	0.06	-30.00	-20.00	7.373	-0.07896	7.13557	0.0
33.9986	66.6892	0.46	0.06	-30.00	-20.00	7.373	-0.08145	7.13554	2.0
34.0186	66.6892	0.46	0.06	-30.00	-20.00	7.373	-0.08394	7.13552	0.0
34.0386	66.6892	0.46	0.06	-30.00	-20.00	7.373	-0.08643	7.13549	2.0
34.0586	66.6892	0.46	0.06	-30.00	-20.00	7.373	-0.08892	7.13546	2.0
34.0786	66.6892	0.46	0.06	-30.00	-20.00	7.373	-0.09141	7.13542	2.0
34.0986	66.6892	0.46	0.06	-30.00	-20.00	7.373	-0.09391	7.13539	2.0
34.1186	66.6892	0.46	0.06	-30.00	-20.00	7.373	-0.09640	7.13536	2.0
34.1386	66.6892	0.46	0.06	-30.00	-20.00	7.373	-0.09889	7.13532	0.0
34.1586	66.6892	0.46	0.06	-30.00	-20.00	7.373	-0.10138	7.13529	2.0
34.1786	66.6892	0.46	0.06	-30.00	-20.00	7.373	-0.10387	7.13525	2.0

32.1886	66.7092	0.46	0.06	-30.00	-20.00	7.373	0.14525	7.13642	0.0
32.2086	66.7092	0.46	0.06	-30.00	-20.00	7.373	0.14276	7.13647	0.0
32.2286	66.7092	0.46	0.06	-30.00	-20.00	7.373	0.14027	7.13652	2.0
32.2486	66.7092	0.46	0.06	-30.00	-20.00	7.373	0.13778	7.13657	0.0
32.2686	66.7092	0.46	0.06	-30.00	-20.00	7.373	0.13529	7.13662	2.0
32.2886	66.7092	0.46	0.06	-30.00	-20.00	7.373	0.13279	7.13667	0.0
32.3086	66.7092	0.46	0.06	-30.00	-20.00	7.373	0.13030	7.13671	2.0
32.3286	66.7092	0.46	0.06	-30.00	-20.00	7.373	0.12781	7.13676	0.0
32.3486	66.7092	0.46	0.06	-30.00	-20.00	7.373	0.12532	7.13680	0.0
32.3686	66.7092	0.46	0.06	-30.00	-20.00	7.373	0.12283	7.13685	0.0
32.3886	66.7092	0.46	0.06	-30.00	-20.00	7.373	0.12034	7.13689	6.0
32.4086	66.7092	0.46	0.06	-30.00	-20.00	7.373	0.11785	7.13693	2.0
32.4286	66.7092	0.46	0.06	-30.00	-20.00	7.373	0.11536	7.13697	0.0
32.4486	66.7092	0.46	0.06	-30.00	-20.00	7.373	0.11286	7.13701	4.0
32.4686	66.7092	0.46	0.06	-30.00	-20.00	7.373	0.11037	7.13705	2.0
32.4886	66.7092	0.46	0.06	-30.00	-20.00	7.373	0.10788	7.13709	2.0
32.5086	66.7092	0.46	0.06	-30.00	-20.00	7.373	0.10539	7.13712	0.0
32.5286	66.7092	0.46	0.06	-30.00	-20.00	7.373	0.10290	7.13716	0.0
32.5486	66.7092	0.46	0.06	-30.00	-20.00	7.373	0.10041	7.13720	0.0
32.5686	66.7092	0.46	0.06	-30.00	-20.00	7.373	0.09792	7.13723	0.0
32.5886	66.7092	0.46	0.06	-30.00	-20.00	7.373	0.09543	7.13726	0.0
32.6086	66.7092	0.46	0.06	-30.00	-20.00	7.373	0.09293	7.13730	2.0
32.6286	66.7092	0.46	0.06	-30.00	-20.00	7.373	0.09044	7.13733	0.0
32.6486	66.7092	0.46	0.06	-30.00	-20.00	7.373	0.08795	7.13736	2.0
32.6686	66.7092	0.46	0.06	-30.00	-20.00	7.373	0.08546	7.13739	0.0
32.6886	66.7092	0.46	0.06	-30.00	-20.00	7.373	0.08297	7.13742	0.0
32.7086	66.7092	0.46	0.06	-30.00	-20.00	7.373	0.08048	7.13745	6.0
32.7286	66.7092	0.46	0.06	-30.00	-20.00	7.373	0.07799	7.13748	2.0
32.7486	66.7092	0.46	0.06	-30.00	-20.00	7.373	0.07549	7.13750	0.0
32.7686	66.7092	0.46	0.06	-30.00	-20.00	7.373	0.07300	7.13753	2.0
32.7886	66.7092	0.46	0.06	-30.00	-20.00	7.373	0.07051	7.13755	2.0
32.8086	66.7092	0.46	0.06	-30.00	-20.00	7.373	0.06802	7.13758	2.0
32.8286	66.7092	0.46	0.06	-30.00	-20.00	7.373	0.06553	7.13760	2.0
32.8486	66.7092	0.46	0.06	-30.00	-20.00	7.373	0.06304	7.13762	2.0
32.8686	66.7092	0.46	0.06	-30.00	-20.00	7.373	0.06055	7.13765	4.0
32.8886	66.7092	0.46	0.06	-30.00	-20.00	7.373	0.05805	7.13767	0.0
32.9086	66.7092	0.46	0.06	-30.00	-20.00	7.373	0.05556	7.13769	0.0
32.9286	66.7092	0.46	0.06	-30.00	-20.00	7.373	0.05307	7.13770	0.0
32.9486	66.7092	0.46	0.06	-30.00	-20.00	7.373	0.05058	7.13772	2.0
32.9686	66.7092	0.46	0.06	-30.00	-20.00	7.373	0.04809	7.13774	0.0
32.9886	66.7092	0.46	0.06	-30.00	-20.00	7.373	0.04560	7.13776	0.0
33.0086	66.7092	0.46	0.06	-30.00	-20.00	7.373	0.04310	7.13777	0.0
33.0286	66.7092	0.46	0.06	-30.00	-20.00	7.373	0.04061	7.13779	0.0
33.0486	66.7092	0.46	0.06	-30.00	-20.00	7.373	0.03812	7.13780	2.0
33.0686	66.7092	0.46	0.06	-30.00	-20.00	7.373	0.03563	7.13781	4.0
33.0886	66.7092	0.46	0.06	-30.00	-20.00	7.373	0.03314	7.13783	0.0
33.1086	66.7092	0.46	0.06	-30.00	-20.00	7.373	0.03065	7.13784	0.0
33.1286	66.7092	0.46	0.06	-30.00	-20.00	7.373	0.02815	7.13785	2.0
33.1486	66.7092	0.46	0.06	-30.00	-20.00	7.373	0.02566	7.13786	0.0
33.1686	66.7092	0.46	0.06	-30.00	-20.00	7.373	0.02317	7.13786	0.0
33.1886	66.7092	0.46	0.06	-30.00	-20.00	7.373	0.02068	7.13787	0.0
33.2086	66.7092	0.46	0.06	-30.00	-20.00	7.373	0.01819	7.13788	2.0
33.2286	66.7092	0.46	0.06	-30.00	-20.00	7.373	0.01570	7.13789	0.0
33.2486	66.7092	0.46	0.06	-30.00	-20.00	7.373	0.01321	7.13789	6.0
[...]
35.0786	69.6092	0.46	0.06	-30.00	-20.00	7.373	-0.03544	7.40993	0.0
35.0986	69.6092	0.46	0.06	-30.00	-20.00	7.373	-0.03802	7.40992	2.0
35.1186	69.6092	0.46	0.06	-30.00	-20.00	7.373	-0.04061	7.40991	2.0
35.1386	69.6092	0.46	0.06	-30.00	-20.00	7.373	-0.04320	7.40989	0.0
35.1586	69.6092	0.46	0.06	-30.00	-20.00	7.373	-0.04578	7.40988	4.0
35.1786	69.6092	0.46	0.06	-30.00	-20.00	7.373	-0.04837	7.40986	0.0
35.1986	69.6092	0.46	0.06	-30.00	-20.00	7.373	-0.05096	7.40984	2.0
35.2186	69.6092	0.46	0.06	-30.00	-20.00	7.373	-0.05354	7.40982	4.0
35.2386	69.6092	0.46	0.06	-30.00	-20.00	7.373	-0.05613	7.40980	0.0
35.2586	69.6092	0.46	0.06	-30.00	-20.00	7.373	-0.05871	7.40978	0.0
35.2786	69.6092	0.46	0.06	-30.00	-20.00	7.373	-0.06130	7.40976	0.0
35.2986	69.6092	0.46	0.06	-30.00	-20.00	7.373	-0.06389	7.40974	4.0
35.3186	69.6092	0.46	0.06	-30.00	-20.00	7.373	-0.06647	7.40972	0.0
35.3386	69.6092	0.46	0.06	-30.00	-20.00	7.373	-0.06906	7.40969	0.0
35.3586	69.6092	0.46	0.06	-30.00	-20.00	7.373	-0.07165	7.40967	0.0
35.3786	69.6092	0.46	0.06	-30.00	-20.00	7.373	-0.07423	7.40964	0.0
35.3986	69.6092	0.46	0.06	-30.00	-20.00	7.373	-0.07682	7.40962	4.0
35.4186	69.6092	0.46	0.06	-30.00	-20.00	7.373	-0.07941	7.40959	0.0
35.4386	69.6092	0.46	0.06	-30.00	-20.00	7.373	-0.08199	7.40956	2.0
35.4586	69.6092	0.46	0.06	-30.00	-20.00	7.373	-0.08458	7.40953	0.0
35.4786	69.6092	0.46	0.06	-30.00	-20.00	7.373	-0.08717	7.40950	4.0
35.4986	69.6092	0.46	0.06	-30.00	-20.00	7.373	-0.08975	7.40947	0.0
35.5186	69.6092	0.46	0.06	-30.00	-20.00	7.373	-0.09234	7.40944	0.0
35.5386	69.6092	0.46	0.06	-30.00	-20.00	7.373	-0.09493	7.40941	0.0
35.5586	69.6092	0.46	0.06	-30.00	-20.00	7.373	-0.09751	7.40937	0.0
35.5786	69.6092	0.46	0.06	-30.00	-20.00	7.373	-0.10010	7.40934	0.0
35.5986	69.6092	0.46	0.06	-30.00	-20.00	7.373	-0.10268	7.40930	2.0
35.6186	69.6092	0.46	0.06	-30.00	-20.00	7.373	-0.10527	7.40927	0.0
35.6386	69.6092	0.46	0.06	-30.00	-20.00	7.373	-0.10786	7.40923	0.0

33.6486	69.6292	0.46	0.06	-30.00	-20.00	7.373	0.15083	7.41034	0.0
33.6686	69.6292	0.46	0.06	-30.00	-20.00	7.373	0.14824	7.41039	0.0
33.6886	69.6292	0.46	0.06	-30.00	-20.00	7.373	0.14565	7.41045	0.0
33.7086	69.6292	0.46	0.06	-30.00	-20.00	7.373	0.14307	7.41050	2.0
33.7286	69.6292	0.46	0.06	-30.00	-20.00	7.373	0.14048	7.41055	2.0
33.7486	69.6292	0.46	0.06	-30.00	-20.00	7.373	0.13789	7.41059	0.0
33.7686	69.6292	0.46	0.06	-30.00	-20.00	7.373	0.13530	7.41064	2.0
33.7886	69.6292	0.46	0.06	-30.00	-20.00	7.373	0.13272	7.41069	2.0
33.8086	69.6292	0.46	0.06	-30.00	-20.00	7.373	0.13013	7.41073	2.0
33.8286	69.6292	0.46	0.06	-30.00	-20.00	7.373	0.12754	7.41078	0.0
33.8486	69.6292	0.46	0.06	-30.00	-20.00	7.373	0.12496	7.41082	0.0
33.8686	69.6292	0.46	0.06	-30.00	-20.00	7.373	0.12237	7.41087	2.0
33.8886	69.6292	0.46	0.06	-30.00	-20.00	7.373	0.11978	7.41091	0.0
33.9086	69.6292	0.46	0.06	-30.00	-20.00	7.373	0.11720	7.41095	4.0
33.9286	69.6292	0.46	0.06	-30.00	-20.00	7.373	0.11461	7.41099	0.0
33.9486	69.6292	0.46	0.06	-30.00	-20.00	7.373	0.11202	7.41103	0.0
33.9686	69.6292	0.46	0.06	-30.00	-20.00	7.373	0.10944	7.41107	0.0
33.9886	69.6292	0.46	0.06	-30.00	-20.00	7.373	0.10685	7.41111	4.0
34.0086	69.6292	0.46	0.06	-30.00	-20.00	7.373	0.10426	7.41114	0.0
34.0286	69.6292	0.46	0.06	-30.00	-20.00	7.373	0.10168	7.41118	0.0
34.0486	69.6292	0.46	0.06	-30.00	-20.00	7.373	0.09909	7.41121	6.0
34.0686	69.6292	0.46	0.06	-30.00	-20.00	7.373	0.09650	7.41125	0.0
34.0886	69.6292	0.46	0.06	-30.00	-20.00	7.373	0.09391	7.41128	0.0
34.1086	69.6292	0.46	0.06	-30.00	-20.00	7.373	0.09133	7.41131	2.0
34.1286	69.6292	0.46	0.06	-30.00	-20.00	7.373	0.08874	7.41135	0.0
34.1486	69.6292	0.46	0.06	-30.00	-20.00	7.373	0.08615	7.41138	0.0
34.1686	69.6292	0.46	0.06	-30.00	-20.00	7.373	0.08357	7.41141	0.0
34.1886	69.6292	0.46	0.06	-30.00	-20.00	7.373	0.08098	7.41143	2.0
34.2086	69.6292	0.46	0.06	-30.00	-20.00	7.373	0.07839	7.41146	0.0
34.2286	69.6292	0.46	0.06	-30.00	-20.00	7.373	0.07580	7.41149	4.0
34.2486	69.6292	0.46	0.06	-30.00	-20.00	7.373	0.07322	7.41152	0.0
34.2686	69.6292	0.46	0.06	-30.00	-20.00	7.373	0.07063	7.41154	2.0
34.2886	69.6292	0.46	0.06	-30.00	-20.00	7.373	0.06804	7.41156	2.0
34.3086	69.6292	0.46	0.06	-30.00	-20.00	7.373	0.06546	7.41159	4.0
34.3286	69.6292	0.46	0.06	-30.00	-20.00	7.373	0.06287	7.41161	2.0
34.3486	69.6292	0.46	0.06	-30.00	-20.00	7.373	0.06028	7.41163	0.0
34.3686	69.6292	0.46	0.06	-30.00	-20.00	7.373	0.05769	7.41165	4.0
34.3886	69.6292	0.46	0.06	-30.00	-20.00	7.373	0.05511	7.41167	2.0
34.4086	69.6292	0.46	0.06	-30.00	-20.00	7.373	0.05252	7.41169	16.0
34.4286	69.6292	0.46	0.06	-30.00	-20.00	7.373	0.04993	7.41171	10.0
34.4486	69.6292	0.46	0.06	-30.00	-20.00	7.373	0.04735	7.41173	2.0
34.4686	69.6292	0.46	0.06	-30.00	-20.00	7.373	0.04476	7.41174	4.0
34.4886	69.6292	0.46	0.06	-30.00	-20.00	7.373	0.04217	7.41176	2.0
34.5086	69.6292	0.46	0.06	-30.00	-20.00	7.373	0.03958	7.41177	0.0
34.5286	69.6292	0.46	0.06	-30.00	-20.00	7.373	0.03700	7.41178	0.0
34.5486	69.6292	0.46	0.06	-30.00	-20.00	7.373	0.03441	7.41180	2.0
34.5686	69.6292	0.46	0.06	-30.00	-20.00	7.373	0.03182	7.41181	0.0
34.5886	69.6292	0.46	0.06	-30.00	-20.00	7.373	0.02924	7.41182	0.0
34.6086	69.6292	0.46	0.06	-30.00	-20.00	7.373	0.02665	7.41183	0.0
34.6286	69.6292	0.46	0.06	-30.00	-20.00	7.373	0.02406	7.41184	0.0
34.6486	69.6292	0.46	0.06	-30.00	-20.00	7.373	0.02147	7.41185	2.0
34.6686	69.6292	0.46	0.06	-30.00	-20.00	7.373	0.01889	7.41185	8.0
34.6886	69.6292	0.46	0.06	-30.00	-20.00	7.373	0.01630	7.41186	2.0
34.7086	69.6292	0.46	0.06	-30.00	-20.00	7.373	0.01371	7.41186	4.0
34.7286	69.6292	0.46	0.06	-30.00	-20.00	7.373	0.01113	7.41187	0.0
34.7486	69.6292	0.46	0.06	-30.00	-20.00	7.373	0.00854	7.41187	2.0
34.7686	69.6292	0.46	0.06	-30.00	-20.00	7.373	0.00595	7.41187	6.0
34.7886	69.6292	0.46	0.06	-30.00	-20.00	7.373	0.00336	7.41188	0.0
34.8086	69.6292	0.46	0.06	-30.00	-20.00	7.373	0.00078	7.41188	6.0
34.8286	69.6292	0.46	0.06	-30.00	-20.00	7.373	-0.00181	7.41188	2.0
34.8486	69.6292	0.46	0.06	-30.00	-20.00	7.373	-0.00440	7.41188	0.0
34.8686	69.6292	0.46	0.06	-30.00	-20.00	7.373	-0.00699	7.41187	2.0
34.8886	69.6292	0.46	0.06	-30.00	-20.00	7.373	-0.00957	7.41187	4.0
34.9086	69.6292	0.46	0.06	-30.00	-20.00	7.373	-0.01216	7.41187	2.0
34.9286	69.6292	0.46	0.06	-30.00	-20.00	7.373	-0.01475	7.41186	4.0
34.9486	69.6292	0.46	0.06	-30.00	-20.00	7.373	-0.01733	7.41186	2.0
34.9686	69.6292	0.46	0.06	-30.00	-20.00	7.373	-0.01992	7.41185	0.0
34.9886	69.6292	0.46	0.06	-30.00	-20.00	7.373	-0.02251	7.41184	4.0
35.0086	69.6292	0.46	0.06	-30.00	-20.00	7.373	-0.02510	7.41183	2.0
35.0286	69.6292	0.46	0.06	-30.00	-20.00	7.373	-0.02768	7.41183	0.0
35.0486	69.6292	0.46	0.06	-30.00	-20.00	7.373	-0.03027	7.41182	4.0
35.0686	69.6292	0.46	0.06	-30.00	-20.00	7.373	-0.03286	7.41180	2.0
35.0886	69.6292	0.46	0.06	-30.00	-20.00	7.373	-0.03544	7.41179	2.0
35.1086	69.6292	0.46	0.06	-30.00	-20.00	7.373	-0.03803	7.41178	4.0
35.1286	69.6292	0.46	0.06	-30.00	-20.00	7.373	-0.04062	7.41177	4.0
35.1486	69.6292	0.46	0.06	-30.00	-20.00	7.373	-0.04321	7.41175	2.0
35.1686	69.6292	0.46	0.06	-30.00	-20.00	7.373	-0.04579	7.41174	2.0
35.1886	69.6292	0.46	0.06	-30.00	-20.00	7.373	-0.04838	7.41172	2.0
35.2086	69.6292	0.46	0.06	-30.00	-20.00	7.373	-0.05097	7.41170	0.0
35.2286	69.6292	0.46	0.06	-30.00	-20.00	7.373	-0.05356	7.41168	0.0
35.2486	69.6292	0.46	0.06	-30.00	-20.00	7.373	-0.05614	7.41166	2.0
35.2686	69.6292	0.46	0.06	-30.00	-20.00	7.373	-0.05873	7.41164	2.0
35.2886	69.6292	0.46	0.06	-30.00	-20.00	7.373	-0.06132	7.41162	2.0
35.3086	69.6292	0.46	0.06	-30.00	-20.00	7.373	-0.06390	7.41160	0.0
35.3286	69.6292	0.46	0.06	-30.00	-20.00	7.373	-0.06649	7.41158	0.0
35.3486	69.6292	0.46	0.06	-30.00	-20.00	7.373	-0.06908	7.41155	0.0
35.3686	69.6292	0.46	0.06	-30.00	-20.00	7.373	-0.07167	7.41153	4.0
35.3886	69.6292	0.46	0.06	-30.00	-20.00	7.373	-0.07425	7.41150	4.0
35.4086	69.6292	0.46	0.06	-30.00	-20.00	7.373	-0.07684	7.41148	0.0
35.4286	69.6292	0.46	0.06	-30.00	-20.00	7.373	-0.07943	7.41145	0.0
35.4486	69.6292	0.46	0.06	-30.00	-20.00	7.373	-0.08201	7.41142	0.0
35.4686	69.6292	0.46	0.06	-30.00	-20.00	7.373	-0.08460	7.41139	0.0
35.4886	69.6292	0.46	0.06	-30.00	-20.00	7.373	-0.08719	7.41136	0.0
35.5086	69.6292	0.46	0.06	-30.00	-20.00	7.373	-0.08977	7.41133	0.0
35.5286	69.6292	0.46	0.06	-30.00	-20.00	7.373	-0.09236	7.41130	0.0
35.5486	69.6292	0.46	0.06	-30.00	-20.00	7.373	-0.09495	7.41127	0.0
35.5686	69.6292	0.46	0.06	-30.00	-20.00	7.373	-0.09754	7.41124	6.0
35.5886	69.6292	0.46	0.06	-30.00	-20.00	7.373	-0.10012	7.41120	2.0
35.6086	69.6292	0.46	0.06	-30.00	-20.00	7.373	-0.10271	7.41117	0.0
35.6286	69.6292	0.46	0.06	-30.00	-20.00	7.373	-0.10530	7.41113	2.0
35.6486	69.6292	0.46	0.06	-30.00	-20.00	7.373	-0.10788	7.41109	0.0