File: Data/Omega/2.0deg-2.0deg-rsm-3h10mins_11352-as-grown_224_w-scans.dat
# filename: 2.0deg-2.0deg-rsm-3h10mins_11352-as-grown_224.dat
# reflection: (004)
# type: rotated into a series of omega scans
# x-axis: Omega_2Theta
#
# Omega	2Theta	Phi  	Chi   	X    	Y    	Z    	q_para	q_perp	Intensity
# [deg]	[deg] 	[deg]	[deg] 	[mm] 	[mm] 	[mm] 	[nm-1]	[nm-1]	[counts/s]
6.1511	85.0724	1.28	0.08	-30.00	20.00	7.317	5.20645	7.06570	0.0
6.1711	85.0724	1.28	0.08	-30.00	20.00	7.317	5.20398	7.06752	2.0
6.1911	85.0724	1.28	0.08	-30.00	20.00	7.317	5.20151	7.06933	4.0
6.2111	85.0724	1.28	0.08	-30.00	20.00	7.317	5.19905	7.07115	0.0
6.2311	85.0724	1.28	0.08	-30.00	20.00	7.317	5.19658	7.07296	4.0
6.2511	85.0724	1.28	0.08	-30.00	20.00	7.317	5.19411	7.07478	0.0
6.2711	85.0724	1.28	0.08	-30.00	20.00	7.317	5.19164	7.07659	2.0
6.2911	85.0724	1.28	0.08	-30.00	20.00	7.317	5.18917	7.07840	0.0
6.3111	85.0724	1.28	0.08	-30.00	20.00	7.317	5.18670	7.08021	0.0
6.3311	85.0724	1.28	0.08	-30.00	20.00	7.317	5.18422	7.08202	4.0
6.3511	85.0724	1.28	0.08	-30.00	20.00	7.317	5.18175	7.08383	2.0
6.3711	85.0724	1.28	0.08	-30.00	20.00	7.317	5.17928	7.08564	0.0
6.3911	85.0724	1.28	0.08	-30.00	20.00	7.317	5.17681	7.08745	0.0
6.4111	85.0724	1.28	0.08	-30.00	20.00	7.317	5.17433	7.08925	0.0
6.4311	85.0724	1.28	0.08	-30.00	20.00	7.317	5.17186	7.09106	4.0
6.4511	85.0724	1.28	0.08	-30.00	20.00	7.317	5.16938	7.09286	4.0
6.4711	85.0724	1.28	0.08	-30.00	20.00	7.317	5.16690	7.09467	0.0
6.4911	85.0724	1.28	0.08	-30.00	20.00	7.317	5.16443	7.09647	0.0
6.5111	85.0724	1.28	0.08	-30.00	20.00	7.317	5.16195	7.09827	0.0
6.5311	85.0724	1.28	0.08	-30.00	20.00	7.317	5.15947	7.10008	2.0
6.5511	85.0724	1.28	0.08	-30.00	20.00	7.317	5.15699	7.10188	0.0
6.5711	85.0724	1.28	0.08	-30.00	20.00	7.317	5.15451	7.10368	4.0
6.5911	85.0724	1.28	0.08	-30.00	20.00	7.317	5.15203	7.10547	2.0
6.6111	85.0724	1.28	0.08	-30.00	20.00	7.317	5.14955	7.10727	0.0
6.6311	85.0724	1.28	0.08	-30.00	20.00	7.317	5.14707	7.10907	4.0
6.6511	85.0724	1.28	0.08	-30.00	20.00	7.317	5.14459	7.11087	2.0
6.6711	85.0724	1.28	0.08	-30.00	20.00	7.317	5.14211	7.11266	0.0
6.6911	85.0724	1.28	0.08	-30.00	20.00	7.317	5.13963	7.11446	0.0
6.7111	85.0724	1.28	0.08	-30.00	20.00	7.317	5.13714	7.11625	2.0
6.7311	85.0724	1.28	0.08	-30.00	20.00	7.317	5.13466	7.11804	6.0
6.7511	85.0724	1.28	0.08	-30.00	20.00	7.317	5.13217	7.11983	2.0
6.7711	85.0724	1.28	0.08	-30.00	20.00	7.317	5.12969	7.12163	4.0
6.7911	85.0724	1.28	0.08	-30.00	20.00	7.317	5.12720	7.12342	0.0
6.8111	85.0724	1.28	0.08	-30.00	20.00	7.317	5.12471	7.12520	0.0
6.8311	85.0724	1.28	0.08	-30.00	20.00	7.317	5.12223	7.12699	2.0
6.8511	85.0724	1.28	0.08	-30.00	20.00	7.317	5.11974	7.12878	0.0
6.8711	85.0724	1.28	0.08	-30.00	20.00	7.317	5.11725	7.13057	0.0
6.8911	85.0724	1.28	0.08	-30.00	20.00	7.317	5.11476	7.13235	2.0
6.9111	85.0724	1.28	0.08	-30.00	20.00	7.317	5.11227	7.13414	0.0
6.9311	85.0724	1.28	0.08	-30.00	20.00	7.317	5.10978	7.13592	0.0
6.9511	85.0724	1.28	0.08	-30.00	20.00	7.317	5.10729	7.13771	6.0
6.9711	85.0724	1.28	0.08	-30.00	20.00	7.317	5.10480	7.13949	2.0
6.9911	85.0724	1.28	0.08	-30.00	20.00	7.317	5.10230	7.14127	0.0
7.0111	85.0724	1.28	0.08	-30.00	20.00	7.317	5.09981	7.14305	0.0
7.0311	85.0724	1.28	0.08	-30.00	20.00	7.317	5.09732	7.14483	0.0
7.0511	85.0724	1.28	0.08	-30.00	20.00	7.317	5.09482	7.14661	2.0
7.0711	85.0724	1.28	0.08	-30.00	20.00	7.317	5.09233	7.14839	0.0
7.0911	85.0724	1.28	0.08	-30.00	20.00	7.317	5.08983	7.15016	2.0
7.1111	85.0724	1.28	0.08	-30.00	20.00	7.317	5.08734	7.15194	2.0
7.1311	85.0724	1.28	0.08	-30.00	20.00	7.317	5.08484	7.15372	2.0
7.1511	85.0724	1.28	0.08	-30.00	20.00	7.317	5.08234	7.15549	0.0
7.1711	85.0724	1.28	0.08	-30.00	20.00	7.317	5.07984	7.15726	2.0
7.1911	85.0724	1.28	0.08	-30.00	20.00	7.317	5.07735	7.15904	2.0
7.2111	85.0724	1.28	0.08	-30.00	20.00	7.317	5.07485	7.16081	0.0
7.2311	85.0724	1.28	0.08	-30.00	20.00	7.317	5.07235	7.16258	0.0
7.2511	85.0724	1.28	0.08	-30.00	20.00	7.317	5.06985	7.16435	0.0
7.2711	85.0724	1.28	0.08	-30.00	20.00	7.317	5.06734	7.16612	0.0
7.2911	85.0724	1.28	0.08	-30.00	20.00	7.317	5.06484	7.16789	0.0
7.3111	85.0724	1.28	0.08	-30.00	20.00	7.317	5.06234	7.16965	0.0
7.3311	85.0724	1.28	0.08	-30.00	20.00	7.317	5.05984	7.17142	2.0
7.3511	85.0724	1.28	0.08	-30.00	20.00	7.317	5.05733	7.17319	2.0
7.3711	85.0724	1.28	0.08	-30.00	20.00	7.317	5.05483	7.17495	0.0
7.3911	85.0724	1.28	0.08	-30.00	20.00	7.317	5.05232	7.17672	2.0
7.4111	85.0724	1.28	0.08	-30.00	20.00	7.317	5.04982	7.17848	0.0
7.4311	85.0724	1.28	0.08	-30.00	20.00	7.317	5.04731	7.18024	6.0
7.4511	85.0724	1.28	0.08	-30.00	20.00	7.317	5.04481	7.18200	2.0
7.4711	85.0724	1.28	0.08	-30.00	20.00	7.317	5.04230	7.18376	0.0
7.4911	85.0724	1.28	0.08	-30.00	20.00	7.317	5.03979	7.18552	0.0
7.5111	85.0724	1.28	0.08	-30.00	20.00	7.317	5.03728	7.18728	2.0
7.5311	85.0724	1.28	0.08	-30.00	20.00	7.317	5.03477	7.18904	2.0
7.5511	85.0724	1.28	0.08	-30.00	20.00	7.317	5.03226	7.19080	6.0
7.5711	85.0724	1.28	0.08	-30.00	20.00	7.317	5.02975	7.19255	2.0
7.5911	85.0724	1.28	0.08	-30.00	20.00	7.317	5.02724	7.19431	4.0
7.6111	85.0724	1.28	0.08	-30.00	20.00	7.317	5.02473	7.19606	4.0
7.6311	85.0724	1.28	0.08	-30.00	20.00	7.317	5.02222	7.19782	4.0
7.6511	85.0724	1.28	0.08	-30.00	20.00	7.317	5.01971	7.19957	0.0
7.6711	85.0724	1.28	0.08	-30.00	20.00	7.317	5.01719	7.20132	6.0
7.6911	85.0724	1.28	0.08	-30.00	20.00	7.317	5.01468	7.20307	2.0
7.7111	85.0724	1.28	0.08	-30.00	20.00	7.317	5.01216	7.20482	0.0
7.7311	85.0724	1.28	0.08	-30.00	20.00	7.317	5.00965	7.20657	2.0
7.7511	85.0724	1.28	0.08	-30.00	20.00	7.317	5.00713	7.20832	0.0
7.7711	85.0724	1.28	0.08	-30.00	20.00	7.317	5.00462	7.21007	0.0
7.7911	85.0724	1.28	0.08	-30.00	20.00	7.317	5.00210	7.21181	0.0
7.8111	85.0724	1.28	0.08	-30.00	20.00	7.317	4.99958	7.21356	0.0
7.8311	85.0724	1.28	0.08	-30.00	20.00	7.317	4.99706	7.21530	0.0
7.8511	85.0724	1.28	0.08	-30.00	20.00	7.317	4.99454	7.21705	4.0
7.8711	85.0724	1.28	0.08	-30.00	20.00	7.317	4.99202	7.21879	2.0
7.8911	85.0724	1.28	0.08	-30.00	20.00	7.317	4.98950	7.22053	0.0
7.9111	85.0724	1.28	0.08	-30.00	20.00	7.317	4.98698	7.22227	0.0
7.9311	85.0724	1.28	0.08	-30.00	20.00	7.317	4.98446	7.22401	0.0
7.9511	85.0724	1.28	0.08	-30.00	20.00	7.317	4.98194	7.22575	2.0
7.9711	85.0724	1.28	0.08	-30.00	20.00	7.317	4.97942	7.22749	0.0
7.9911	85.0724	1.28	0.08	-30.00	20.00	7.317	4.97689	7.22923	0.0
8.0111	85.0724	1.28	0.08	-30.00	20.00	7.317	4.97437	7.23097	0.0
8.0311	85.0724	1.28	0.08	-30.00	20.00	7.317	4.97185	7.23270	0.0
8.0511	85.0724	1.28	0.08	-30.00	20.00	7.317	4.96932	7.23444	0.0
8.0711	85.0724	1.28	0.08	-30.00	20.00	7.317	4.96680	7.23617	0.0
8.0911	85.0724	1.28	0.08	-30.00	20.00	7.317	4.96427	7.23790	2.0
8.1111	85.0724	1.28	0.08	-30.00	20.00	7.317	4.96174	7.23964	0.0
8.1311	85.0724	1.28	0.08	-30.00	20.00	7.317	4.95922	7.24137	4.0
8.1511	85.0724	1.28	0.08	-30.00	20.00	7.317	4.95669	7.24310	0.0

6.1611	85.0924	1.28	0.08	-30.00	20.00	7.317	5.20744	7.06704	0.0
6.1811	85.0924	1.28	0.08	-30.00	20.00	7.317	5.20497	7.06886	4.0
6.2011	85.0924	1.28	0.08	-30.00	20.00	7.317	5.20250	7.07068	2.0
6.2211	85.0924	1.28	0.08	-30.00	20.00	7.317	5.20004	7.07249	2.0
6.2411	85.0924	1.28	0.08	-30.00	20.00	7.317	5.19757	7.07431	2.0
6.2611	85.0924	1.28	0.08	-30.00	20.00	7.317	5.19510	7.07612	0.0
6.2811	85.0924	1.28	0.08	-30.00	20.00	7.317	5.19263	7.07794	2.0
6.3011	85.0924	1.28	0.08	-30.00	20.00	7.317	5.19015	7.07975	0.0
6.3211	85.0924	1.28	0.08	-30.00	20.00	7.317	5.18768	7.08156	2.0
6.3411	85.0924	1.28	0.08	-30.00	20.00	7.317	5.18521	7.08337	0.0
6.3611	85.0924	1.28	0.08	-30.00	20.00	7.317	5.18274	7.08518	0.0
6.3811	85.0924	1.28	0.08	-30.00	20.00	7.317	5.18026	7.08699	0.0
6.4011	85.0924	1.28	0.08	-30.00	20.00	7.317	5.17779	7.08880	0.0
6.4211	85.0924	1.28	0.08	-30.00	20.00	7.317	5.17532	7.09060	2.0
6.4411	85.0924	1.28	0.08	-30.00	20.00	7.317	5.17284	7.09241	2.0
6.4611	85.0924	1.28	0.08	-30.00	20.00	7.317	5.17036	7.09421	0.0
6.4811	85.0924	1.28	0.08	-30.00	20.00	7.317	5.16789	7.09602	0.0
6.5011	85.0924	1.28	0.08	-30.00	20.00	7.317	5.16541	7.09782	0.0
6.5211	85.0924	1.28	0.08	-30.00	20.00	7.317	5.16293	7.09962	0.0
6.5411	85.0924	1.28	0.08	-30.00	20.00	7.317	5.16045	7.10143	2.0
6.5611	85.0924	1.28	0.08	-30.00	20.00	7.317	5.15797	7.10323	2.0
6.5811	85.0924	1.28	0.08	-30.00	20.00	7.317	5.15549	7.10503	2.0
6.6011	85.0924	1.28	0.08	-30.00	20.00	7.317	5.15301	7.10683	4.0
6.6211	85.0924	1.28	0.08	-30.00	20.00	7.317	5.15053	7.10862	2.0
6.6411	85.0924	1.28	0.08	-30.00	20.00	7.317	5.14805	7.11042	2.0
6.6611	85.0924	1.28	0.08	-30.00	20.00	7.317	5.14557	7.11222	0.0
6.6811	85.0924	1.28	0.08	-30.00	20.00	7.317	5.14309	7.11401	2.0
6.7011	85.0924	1.28	0.08	-30.00	20.00	7.317	5.14060	7.11581	2.0
6.7211	85.0924	1.28	0.08	-30.00	20.00	7.317	5.13812	7.11760	0.0
6.7411	85.0924	1.28	0.08	-30.00	20.00	7.317	5.13563	7.11940	4.0
6.7611	85.0924	1.28	0.08	-30.00	20.00	7.317	5.13315	7.12119	2.0
6.7811	85.0924	1.28	0.08	-30.00	20.00	7.317	5.13066	7.12298	0.0
6.8011	85.0924	1.28	0.08	-30.00	20.00	7.317	5.12818	7.12477	0.0
6.8211	85.0924	1.28	0.08	-30.00	20.00	7.317	5.12569	7.12656	6.0
6.8411	85.0924	1.28	0.08	-30.00	20.00	7.317	5.12320	7.12835	0.0
6.8611	85.0924	1.28	0.08	-30.00	20.00	7.317	5.12071	7.13014	0.0
6.8811	85.0924	1.28	0.08	-30.00	20.00	7.317	5.11822	7.13192	0.0
6.9011	85.0924	1.28	0.08	-30.00	20.00	7.317	5.11573	7.13371	0.0
6.9211	85.0924	1.28	0.08	-30.00	20.00	7.317	5.11324	7.13550	4.0
6.9411	85.0924	1.28	0.08	-30.00	20.00	7.317	5.11075	7.13728	2.0
6.9611	85.0924	1.28	0.08	-30.00	20.00	7.317	5.10826	7.13906	2.0
6.9811	85.0924	1.28	0.08	-30.00	20.00	7.317	5.10577	7.14085	0.0
7.0011	85.0924	1.28	0.08	-30.00	20.00	7.317	5.10327	7.14263	0.0
7.0211	85.0924	1.28	0.08	-30.00	20.00	7.317	5.10078	7.14441	2.0
7.0411	85.0924	1.28	0.08	-30.00	20.00	7.317	5.09829	7.14619	0.0
7.0611	85.0924	1.28	0.08	-30.00	20.00	7.317	5.09579	7.14797	4.0
7.0811	85.0924	1.28	0.08	-30.00	20.00	7.317	5.09330	7.14975	2.0
7.1011	85.0924	1.28	0.08	-30.00	20.00	7.317	5.09080	7.15152	0.0
7.1211	85.0924	1.28	0.08	-30.00	20.00	7.317	5.08830	7.15330	0.0
7.1411	85.0924	1.28	0.08	-30.00	20.00	7.317	5.08581	7.15508	0.0
7.1611	85.0924	1.28	0.08	-30.00	20.00	7.317	5.08331	7.15685	4.0
7.1811	85.0924	1.28	0.08	-30.00	20.00	7.317	5.08081	7.15862	4.0
7.2011	85.0924	1.28	0.08	-30.00	20.00	7.317	5.07831	7.16040	2.0
7.2211	85.0924	1.28	0.08	-30.00	20.00	7.317	5.07581	7.16217	4.0
7.2411	85.0924	1.28	0.08	-30.00	20.00	7.317	5.07331	7.16394	0.0
7.2611	85.0924	1.28	0.08	-30.00	20.00	7.317	5.07081	7.16571	0.0
7.2811	85.0924	1.28	0.08	-30.00	20.00	7.317	5.06831	7.16748	0.0
7.3011	85.0924	1.28	0.08	-30.00	20.00	7.317	5.06581	7.16925	4.0
7.3211	85.0924	1.28	0.08	-30.00	20.00	7.317	5.06330	7.17102	2.0
7.3411	85.0924	1.28	0.08	-30.00	20.00	7.317	5.06080	7.17279	2.0
7.3611	85.0924	1.28	0.08	-30.00	20.00	7.317	5.05830	7.17455	2.0
7.3811	85.0924	1.28	0.08	-30.00	20.00	7.317	5.05579	7.17632	2.0
7.4011	85.0924	1.28	0.08	-30.00	20.00	7.317	5.05329	7.17808	4.0
7.4211	85.0924	1.28	0.08	-30.00	20.00	7.317	5.05078	7.17984	6.0
7.4411	85.0924	1.28	0.08	-30.00	20.00	7.317	5.04827	7.18161	2.0
7.4611	85.0924	1.28	0.08	-30.00	20.00	7.317	5.04577	7.18337	2.0
7.4811	85.0924	1.28	0.08	-30.00	20.00	7.317	5.04326	7.18513	0.0
7.5011	85.0924	1.28	0.08	-30.00	20.00	7.317	5.04075	7.18689	0.0
7.5211	85.0924	1.28	0.08	-30.00	20.00	7.317	5.03824	7.18865	2.0
7.5411	85.0924	1.28	0.08	-30.00	20.00	7.317	5.03573	7.19041	0.0
7.5611	85.0924	1.28	0.08	-30.00	20.00	7.317	5.03322	7.19216	0.0
7.5811	85.0924	1.28	0.08	-30.00	20.00	7.317	5.03071	7.19392	2.0
7.6011	85.0924	1.28	0.08	-30.00	20.00	7.317	5.02820	7.19568	2.0
7.6211	85.0924	1.28	0.08	-30.00	20.00	7.317	5.02569	7.19743	2.0
7.6411	85.0924	1.28	0.08	-30.00	20.00	7.317	5.02317	7.19918	0.0
7.6611	85.0924	1.28	0.08	-30.00	20.00	7.317	5.02066	7.20094	2.0
7.6811	85.0924	1.28	0.08	-30.00	20.00	7.317	5.01815	7.20269	4.0
7.7011	85.0924	1.28	0.08	-30.00	20.00	7.317	5.01563	7.20444	2.0
7.7211	85.0924	1.28	0.08	-30.00	20.00	7.317	5.01312	7.20619	0.0
7.7411	85.0924	1.28	0.08	-30.00	20.00	7.317	5.01060	7.20794	4.0
7.7611	85.0924	1.28	0.08	-30.00	20.00	7.317	5.00808	7.20969	2.0
7.7811	85.0924	1.28	0.08	-30.00	20.00	7.317	5.00557	7.21144	2.0
7.8011	85.0924	1.28	0.08	-30.00	20.00	7.317	5.00305	7.21318	0.0
7.8211	85.0924	1.28	0.08	-30.00	20.00	7.317	5.00053	7.21493	0.0
7.8411	85.0924	1.28	0.08	-30.00	20.00	7.317	4.99801	7.21668	0.0
7.8611	85.0924	1.28	0.08	-30.00	20.00	7.317	4.99549	7.21842	0.0
7.8811	85.0924	1.28	0.08	-30.00	20.00	7.317	4.99297	7.22016	2.0
7.9011	85.0924	1.28	0.08	-30.00	20.00	7.317	4.99045	7.22191	0.0
7.9211	85.0924	1.28	0.08	-30.00	20.00	7.317	4.98793	7.22365	2.0
7.9411	85.0924	1.28	0.08	-30.00	20.00	7.317	4.98541	7.22539	2.0
7.9611	85.0924	1.28	0.08	-30.00	20.00	7.317	4.98289	7.22713	0.0
7.9811	85.0924	1.28	0.08	-30.00	20.00	7.317	4.98036	7.22887	4.0
8.0011	85.0924	1.28	0.08	-30.00	20.00	7.317	4.97784	7.23060	4.0
8.0211	85.0924	1.28	0.08	-30.00	20.00	7.317	4.97532	7.23234	2.0
8.0411	85.0924	1.28	0.08	-30.00	20.00	7.317	4.97279	7.23408	0.0
8.0611	85.0924	1.28	0.08	-30.00	20.00	7.317	4.97027	7.23581	2.0
8.0811	85.0924	1.28	0.08	-30.00	20.00	7.317	4.96774	7.23755	2.0
8.1011	85.0924	1.28	0.08	-30.00	20.00	7.317	4.96521	7.23928	4.0
8.1211	85.0924	1.28	0.08	-30.00	20.00	7.317	4.96269	7.24101	2.0
8.1411	85.0924	1.28	0.08	-30.00	20.00	7.317	4.96016	7.24275	2.0
8.1611	85.0924	1.28	0.08	-30.00	20.00	7.317	4.95763	7.24448	0.0

6.1711	85.1124	1.28	0.08	-30.00	20.00	7.317	5.20843	7.06839	2.0
6.1911	85.1124	1.28	0.08	-30.00	20.00	7.317	5.20596	7.07021	0.0
6.2111	85.1124	1.28	0.08	-30.00	20.00	7.317	5.20349	7.07202	2.0
6.2311	85.1124	1.28	0.08	-30.00	20.00	7.317	5.20102	7.07384	0.0
6.2511	85.1124	1.28	0.08	-30.00	20.00	7.317	5.19855	7.07565	2.0
6.2711	85.1124	1.28	0.08	-30.00	20.00	7.317	5.19608	7.07747	2.0
6.2911	85.1124	1.28	0.08	-30.00	20.00	7.317	5.19361	7.07928	0.0
6.3111	85.1124	1.28	0.08	-30.00	20.00	7.317	5.19114	7.08109	0.0
6.3311	85.1124	1.28	0.08	-30.00	20.00	7.317	5.18867	7.08291	2.0
6.3511	85.1124	1.28	0.08	-30.00	20.00	7.317	5.18620	7.08472	2.0
6.3711	85.1124	1.28	0.08	-30.00	20.00	7.317	5.18372	7.08653	4.0
6.3911	85.1124	1.28	0.08	-30.00	20.00	7.317	5.18125	7.08834	2.0
6.4111	85.1124	1.28	0.08	-30.00	20.00	7.317	5.17878	7.09014	0.0
6.4311	85.1124	1.28	0.08	-30.00	20.00	7.317	5.17630	7.09195	4.0
6.4511	85.1124	1.28	0.08	-30.00	20.00	7.317	5.17382	7.09376	0.0
6.4711	85.1124	1.28	0.08	-30.00	20.00	7.317	5.17135	7.09556	0.0
6.4911	85.1124	1.28	0.08	-30.00	20.00	7.317	5.16887	7.09737	2.0
6.5111	85.1124	1.28	0.08	-30.00	20.00	7.317	5.16639	7.09917	0.0
6.5311	85.1124	1.28	0.08	-30.00	20.00	7.317	5.16391	7.10097	0.0
6.5511	85.1124	1.28	0.08	-30.00	20.00	7.317	5.16144	7.10278	4.0
6.5711	85.1124	1.28	0.08	-30.00	20.00	7.317	5.15896	7.10458	0.0
6.5911	85.1124	1.28	0.08	-30.00	20.00	7.317	5.15648	7.10638	0.0
6.6111	85.1124	1.28	0.08	-30.00	20.00	7.317	5.15399	7.10818	2.0
6.6311	85.1124	1.28	0.08	-30.00	20.00	7.317	5.15151	7.10998	0.0
6.6511	85.1124	1.28	0.08	-30.00	20.00	7.317	5.14903	7.11177	0.0
6.6711	85.1124	1.28	0.08	-30.00	20.00	7.317	5.14655	7.11357	4.0
6.6911	85.1124	1.28	0.08	-30.00	20.00	7.317	5.14406	7.11537	4.0
6.7111	85.1124	1.28	0.08	-30.00	20.00	7.317	5.14158	7.11716	2.0
6.7311	85.1124	1.28	0.08	-30.00	20.00	7.317	5.13910	7.11896	2.0
6.7511	85.1124	1.28	0.08	-30.00	20.00	7.317	5.13661	7.12075	0.0
6.7711	85.1124	1.28	0.08	-30.00	20.00	7.317	5.13412	7.12254	0.0
6.7911	85.1124	1.28	0.08	-30.00	20.00	7.317	5.13164	7.12433	2.0
6.8111	85.1124	1.28	0.08	-30.00	20.00	7.317	5.12915	7.12613	0.0
6.8311	85.1124	1.28	0.08	-30.00	20.00	7.317	5.12666	7.12792	0.0
6.8511	85.1124	1.28	0.08	-30.00	20.00	7.317	5.12417	7.12970	0.0
6.8711	85.1124	1.28	0.08	-30.00	20.00	7.317	5.12169	7.13149	0.0
6.8911	85.1124	1.28	0.08	-30.00	20.00	7.317	5.11920	7.13328	2.0
6.9111	85.1124	1.28	0.08	-30.00	20.00	7.317	5.11671	7.13507	0.0
6.9311	85.1124	1.28	0.08	-30.00	20.00	7.317	5.11421	7.13685	0.0
6.9511	85.1124	1.28	0.08	-30.00	20.00	7.317	5.11172	7.13864	0.0
6.9711	85.1124	1.28	0.08	-30.00	20.00	7.317	5.10923	7.14042	2.0
6.9911	85.1124	1.28	0.08	-30.00	20.00	7.317	5.10674	7.14220	2.0
7.0111	85.1124	1.28	0.08	-30.00	20.00	7.317	5.10424	7.14399	0.0
7.0311	85.1124	1.28	0.08	-30.00	20.00	7.317	5.10175	7.14577	2.0
7.0511	85.1124	1.28	0.08	-30.00	20.00	7.317	5.09926	7.14755	0.0
7.0711	85.1124	1.28	0.08	-30.00	20.00	7.317	5.09676	7.14933	4.0
7.0911	85.1124	1.28	0.08	-30.00	20.00	7.317	5.09426	7.15111	0.0
7.1111	85.1124	1.28	0.08	-30.00	20.00	7.317	5.09177	7.15288	0.0
7.1311	85.1124	1.28	0.08	-30.00	20.00	7.317	5.08927	7.15466	0.0
7.1511	85.1124	1.28	0.08	-30.00	20.00	7.317	5.08677	7.15644	4.0
7.1711	85.1124	1.28	0.08	-30.00	20.00	7.317	5.08428	7.15821	4.0
7.1911	85.1124	1.28	0.08	-30.00	20.00	7.317	5.08178	7.15999	0.0
7.2111	85.1124	1.28	0.08	-30.00	20.00	7.317	5.07928	7.16176	2.0
7.2311	85.1124	1.28	0.08	-30.00	20.00	7.317	5.07678	7.16353	0.0
7.2511	85.1124	1.28	0.08	-30.00	20.00	7.317	5.07428	7.16530	2.0
7.2711	85.1124	1.28	0.08	-30.00	20.00	7.317	5.07177	7.16707	2.0
7.2911	85.1124	1.28	0.08	-30.00	20.00	7.317	5.06927	7.16884	0.0
7.3111	85.1124	1.28	0.08	-30.00	20.00	7.317	5.06677	7.17061	0.0
7.3311	85.1124	1.28	0.08	-30.00	20.00	7.317	5.06427	7.17238	6.0
7.3511	85.1124	1.28	0.08	-30.00	20.00	7.317	5.06176	7.17415	0.0
7.3711	85.1124	1.28	0.08	-30.00	20.00	7.317	5.05926	7.17592	2.0
7.3911	85.1124	1.28	0.08	-30.00	20.00	7.317	5.05675	7.17768	2.0
7.4111	85.1124	1.28	0.08	-30.00	20.00	7.317	5.05425	7.17945	0.0
7.4311	85.1124	1.28	0.08	-30.00	20.00	7.317	5.05174	7.18121	0.0
[...]
9.4611	89.0124	1.28	0.08	-30.00	20.00	7.317	5.22564	7.45050	2.0
9.4811	89.0124	1.28	0.08	-30.00	20.00	7.317	5.22304	7.45232	0.0
9.5011	89.0124	1.28	0.08	-30.00	20.00	7.317	5.22044	7.45415	2.0
9.5211	89.0124	1.28	0.08	-30.00	20.00	7.317	5.21784	7.45597	0.0
9.5411	89.0124	1.28	0.08	-30.00	20.00	7.317	5.21523	7.45779	4.0
9.5611	89.0124	1.28	0.08	-30.00	20.00	7.317	5.21263	7.45961	0.0
9.5811	89.0124	1.28	0.08	-30.00	20.00	7.317	5.21002	7.46143	0.0
9.6011	89.0124	1.28	0.08	-30.00	20.00	7.317	5.20742	7.46325	0.0
9.6211	89.0124	1.28	0.08	-30.00	20.00	7.317	5.20481	7.46506	0.0
9.6411	89.0124	1.28	0.08	-30.00	20.00	7.317	5.20221	7.46688	0.0
9.6611	89.0124	1.28	0.08	-30.00	20.00	7.317	5.19960	7.46869	2.0
9.6811	89.0124	1.28	0.08	-30.00	20.00	7.317	5.19699	7.47051	0.0
9.7011	89.0124	1.28	0.08	-30.00	20.00	7.317	5.19439	7.47232	0.0
9.7211	89.0124	1.28	0.08	-30.00	20.00	7.317	5.19178	7.47414	2.0
9.7411	89.0124	1.28	0.08	-30.00	20.00	7.317	5.18917	7.47595	2.0
9.7611	89.0124	1.28	0.08	-30.00	20.00	7.317	5.18656	7.47776	2.0
9.7811	89.0124	1.28	0.08	-30.00	20.00	7.317	5.18395	7.47957	2.0
9.8011	89.0124	1.28	0.08	-30.00	20.00	7.317	5.18134	7.48138	0.0
9.8211	89.0124	1.28	0.08	-30.00	20.00	7.317	5.17872	7.48319	0.0
9.8411	89.0124	1.28	0.08	-30.00	20.00	7.317	5.17611	7.48499	2.0
9.8611	89.0124	1.28	0.08	-30.00	20.00	7.317	5.17350	7.48680	0.0
9.8811	89.0124	1.28	0.08	-30.00	20.00	7.317	5.17089	7.48860	2.0
9.9011	89.0124	1.28	0.08	-30.00	20.00	7.317	5.16827	7.49041	2.0
9.9211	89.0124	1.28	0.08	-30.00	20.00	7.317	5.16566	7.49221	6.0
9.9411	89.0124	1.28	0.08	-30.00	20.00	7.317	5.16304	7.49402	2.0
9.9611	89.0124	1.28	0.08	-30.00	20.00	7.317	5.16042	7.49582	0.0
9.9811	89.0124	1.28	0.08	-30.00	20.00	7.317	5.15781	7.49762	2.0
10.0011	89.0124	1.28	0.08	-30.00	20.00	7.317	5.15519	7.49942	2.0
10.0211	89.0124	1.28	0.08	-30.00	20.00	7.317	5.15257	7.50122	0.0
10.0411	89.0124	1.28	0.08	-30.00	20.00	7.317	5.14995	7.50302	0.0
10.0611	89.0124	1.28	0.08	-30.00	20.00	7.317	5.14733	7.50481	6.0
10.0811	89.0124	1.28	0.08	-30.00	20.00	7.317	5.14471	7.50661	0.0
10.1011	89.0124	1.28	0.08	-30.00	20.00	7.317	5.14209	7.50840	0.0
10.1211	89.0124	1.28	0.08	-30.00	20.00	7.317	5.13947	7.51020	0.0

8.1311	89.0324	1.28	0.08	-30.00	20.00	7.317	5.39940	7.32756	2.0
8.1511	89.0324	1.28	0.08	-30.00	20.00	7.317	5.39684	7.32944	2.0
8.1711	89.0324	1.28	0.08	-30.00	20.00	7.317	5.39429	7.33133	2.0
8.1911	89.0324	1.28	0.08	-30.00	20.00	7.317	5.39173	7.33321	0.0
8.2111	89.0324	1.28	0.08	-30.00	20.00	7.317	5.38917	7.33509	2.0
8.2311	89.0324	1.28	0.08	-30.00	20.00	7.317	5.38660	7.33697	2.0
8.2511	89.0324	1.28	0.08	-30.00	20.00	7.317	5.38404	7.33885	2.0
8.2711	89.0324	1.28	0.08	-30.00	20.00	7.317	5.38148	7.34073	2.0
8.2911	89.0324	1.28	0.08	-30.00	20.00	7.317	5.37892	7.34261	0.0
8.3111	89.0324	1.28	0.08	-30.00	20.00	7.317	5.37636	7.34449	0.0
8.3311	89.0324	1.28	0.08	-30.00	20.00	7.317	5.37379	7.34636	4.0
8.3511	89.0324	1.28	0.08	-30.00	20.00	7.317	5.37123	7.34824	6.0
8.3711	89.0324	1.28	0.08	-30.00	20.00	7.317	5.36866	7.35011	0.0
8.3911	89.0324	1.28	0.08	-30.00	20.00	7.317	5.36610	7.35199	0.0
8.4111	89.0324	1.28	0.08	-30.00	20.00	7.317	5.36353	7.35386	2.0
8.4311	89.0324	1.28	0.08	-30.00	20.00	7.317	5.36096	7.35573	2.0
8.4511	89.0324	1.28	0.08	-30.00	20.00	7.317	5.35839	7.35760	0.0
8.4711	89.0324	1.28	0.08	-30.00	20.00	7.317	5.35582	7.35947	2.0
8.4911	89.0324	1.28	0.08	-30.00	20.00	7.317	5.35326	7.36134	4.0
8.5111	89.0324	1.28	0.08	-30.00	20.00	7.317	5.35069	7.36321	6.0
8.5311	89.0324	1.28	0.08	-30.00	20.00	7.317	5.34811	7.36508	0.0
8.5511	89.0324	1.28	0.08	-30.00	20.00	7.317	5.34554	7.36694	2.0
8.5711	89.0324	1.28	0.08	-30.00	20.00	7.317	5.34297	7.36881	0.0
8.5911	89.0324	1.28	0.08	-30.00	20.00	7.317	5.34040	7.37067	4.0
8.6111	89.0324	1.28	0.08	-30.00	20.00	7.317	5.33783	7.37254	0.0
8.6311	89.0324	1.28	0.08	-30.00	20.00	7.317	5.33525	7.37440	0.0
8.6511	89.0324	1.28	0.08	-30.00	20.00	7.317	5.33268	7.37626	4.0
8.6711	89.0324	1.28	0.08	-30.00	20.00	7.317	5.33010	7.37812	0.0
8.6911	89.0324	1.28	0.08	-30.00	20.00	7.317	5.32753	7.37998	0.0
8.7111	89.0324	1.28	0.08	-30.00	20.00	7.317	5.32495	7.38184	4.0
8.7311	89.0324	1.28	0.08	-30.00	20.00	7.317	5.32237	7.38370	2.0
8.7511	89.0324	1.28	0.08	-30.00	20.00	7.317	5.31980	7.38556	2.0
8.7711	89.0324	1.28	0.08	-30.00	20.00	7.317	5.31722	7.38741	0.0
8.7911	89.0324	1.28	0.08	-30.00	20.00	7.317	5.31464	7.38927	0.0
8.8111	89.0324	1.28	0.08	-30.00	20.00	7.317	5.31206	7.39112	0.0
8.8311	89.0324	1.28	0.08	-30.00	20.00	7.317	5.30948	7.39298	0.0
8.8511	89.0324	1.28	0.08	-30.00	20.00	7.317	5.30690	7.39483	2.0
8.8711	89.0324	1.28	0.08	-30.00	20.00	7.317	5.30432	7.39668	2.0
8.8911	89.0324	1.28	0.08	-30.00	20.00	7.317	5.30173	7.39853	0.0
8.9111	89.0324	1.28	0.08	-30.00	20.00	7.317	5.29915	7.40038	0.0
8.9311	89.0324	1.28	0.08	-30.00	20.00	7.317	5.29657	7.40223	2.0
8.9511	89.0324	1.28	0.08	-30.00	20.00	7.317	5.29398	7.40408	0.0
8.9711	89.0324	1.28	0.08	-30.00	20.00	7.317	5.29140	7.40593	6.0
8.9911	89.0324	1.28	0.08	-30.00	20.00	7.317	5.28881	7.40778	0.0
9.0111	89.0324	1.28	0.08	-30.00	20.00	7.317	5.28623	7.40962	0.0
9.0311	89.0324	1.28	0.08	-30.00	20.00	7.317	5.28364	7.41147	2.0
9.0511	89.0324	1.28	0.08	-30.00	20.00	7.317	5.28105	7.41331	4.0
9.0711	89.0324	1.28	0.08	-30.00	20.00	7.317	5.27846	7.41515	4.0
9.0911	89.0324	1.28	0.08	-30.00	20.00	7.317	5.27588	7.41699	2.0
9.1111	89.0324	1.28	0.08	-30.00	20.00	7.317	5.27329	7.41884	0.0
9.1311	89.0324	1.28	0.08	-30.00	20.00	7.317	5.27070	7.42068	2.0
9.1511	89.0324	1.28	0.08	-30.00	20.00	7.317	5.26811	7.42252	2.0
9.1711	89.0324	1.28	0.08	-30.00	20.00	7.317	5.26551	7.42435	4.0
9.1911	89.0324	1.28	0.08	-30.00	20.00	7.317	5.26292	7.42619	0.0
9.2111	89.0324	1.28	0.08	-30.00	20.00	7.317	5.26033	7.42803	0.0
9.2311	89.0324	1.28	0.08	-30.00	20.00	7.317	5.25774	7.42986	2.0
9.2511	89.0324	1.28	0.08	-30.00	20.00	7.317	5.25514	7.43170	2.0
9.2711	89.0324	1.28	0.08	-30.00	20.00	7.317	5.25255	7.43353	0.0
9.2911	89.0324	1.28	0.08	-30.00	20.00	7.317	5.24995	7.43537	2.0
9.3111	89.0324	1.28	0.08	-30.00	20.00	7.317	5.24736	7.43720	2.0
9.3311	89.0324	1.28	0.08	-30.00	20.00	7.317	5.24476	7.43903	2.0
9.3511	89.0324	1.28	0.08	-30.00	20.00	7.317	5.24216	7.44086	0.0
9.3711	89.0324	1.28	0.08	-30.00	20.00	7.317	5.23957	7.44269	2.0
9.3911	89.0324	1.28	0.08	-30.00	20.00	7.317	5.23697	7.44452	0.0
9.4111	89.0324	1.28	0.08	-30.00	20.00	7.317	5.23437	7.44634	2.0
9.4311	89.0324	1.28	0.08	-30.00	20.00	7.317	5.23177	7.44817	2.0
9.4511	89.0324	1.28	0.08	-30.00	20.00	7.317	5.22917	7.45000	2.0
9.4711	89.0324	1.28	0.08	-30.00	20.00	7.317	5.22657	7.45182	0.0
9.4911	89.0324	1.28	0.08	-30.00	20.00	7.317	5.22397	7.45365	0.0
9.5111	89.0324	1.28	0.08	-30.00	20.00	7.317	5.22136	7.45547	2.0
9.5311	89.0324	1.28	0.08	-30.00	20.00	7.317	5.21876	7.45729	2.0
9.5511	89.0324	1.28	0.08	-30.00	20.00	7.317	5.21616	7.45911	0.0
9.5711	89.0324	1.28	0.08	-30.00	20.00	7.317	5.21355	7.46093	4.0
9.5911	89.0324	1.28	0.08	-30.00	20.00	7.317	5.21095	7.46275	0.0
9.6111	89.0324	1.28	0.08	-30.00	20.00	7.317	5.20834	7.46457	4.0
9.6311	89.0324	1.28	0.08	-30.00	20.00	7.317	5.20574	7.46639	4.0
9.6511	89.0324	1.28	0.08	-30.00	20.00	7.317	5.20313	7.46821	0.0
9.6711	89.0324	1.28	0.08	-30.00	20.00	7.317	5.20052	7.47002	0.0
9.6911	89.0324	1.28	0.08	-30.00	20.00	7.317	5.19792	7.47184	2.0
9.7111	89.0324	1.28	0.08	-30.00	20.00	7.317	5.19531	7.47365	0.0
9.7311	89.0324	1.28	0.08	-30.00	20.00	7.317	5.19270	7.47546	0.0
9.7511	89.0324	1.28	0.08	-30.00	20.00	7.317	5.19009	7.47727	0.0
9.7711	89.0324	1.28	0.08	-30.00	20.00	7.317	5.18748	7.47909	0.0
9.7911	89.0324	1.28	0.08	-30.00	20.00	7.317	5.18487	7.48090	0.0
9.8111	89.0324	1.28	0.08	-30.00	20.00	7.317	5.18226	7.48271	8.0
9.8311	89.0324	1.28	0.08	-30.00	20.00	7.317	5.17964	7.48451	0.0
9.8511	89.0324	1.28	0.08	-30.00	20.00	7.317	5.17703	7.48632	2.0
9.8711	89.0324	1.28	0.08	-30.00	20.00	7.317	5.17442	7.48813	2.0
9.8911	89.0324	1.28	0.08	-30.00	20.00	7.317	5.17180	7.48993	0.0
9.9111	89.0324	1.28	0.08	-30.00	20.00	7.317	5.16919	7.49174	2.0
9.9311	89.0324	1.28	0.08	-30.00	20.00	7.317	5.16657	7.49354	0.0
9.9511	89.0324	1.28	0.08	-30.00	20.00	7.317	5.16396	7.49535	4.0
9.9711	89.0324	1.28	0.08	-30.00	20.00	7.317	5.16134	7.49715	8.0
9.9911	89.0324	1.28	0.08	-30.00	20.00	7.317	5.15872	7.49895	0.0
10.0111	89.0324	1.28	0.08	-30.00	20.00	7.317	5.15611	7.50075	4.0
10.0311	89.0324	1.28	0.08	-30.00	20.00	7.317	5.15349	7.50255	8.0
10.0511	89.0324	1.28	0.08	-30.00	20.00	7.317	5.15087	7.50435	2.0
10.0711	89.0324	1.28	0.08	-30.00	20.00	7.317	5.14825	7.50615	4.0
10.0911	89.0324	1.28	0.08	-30.00	20.00	7.317	5.14563	7.50794	0.0
10.1111	89.0324	1.28	0.08	-30.00	20.00	7.317	5.14301	7.50974	6.0
10.1311	89.0324	1.28	0.08	-30.00	20.00	7.317	5.14038	7.51153	0.0