File: Data/Omega/2.0deg-2.0deg-rsm-3h10mins_11352-annealed_224_w-scans.dat
# filename: 2.0deg-2.0deg-rsm-3h10mins_11352-annealed_224.dat
# reflection: (004)
# type: rotated into a series of omega scans
# x-axis: Omega_2Theta
#
# Omega	2Theta	Phi  	Chi   	X    	Y    	Z    	q_para	q_perp	Intensity
# [deg]	[deg] 	[deg]	[deg] 	[mm] 	[mm] 	[mm] 	[nm-1]	[nm-1]	[counts/s]
6.5575	85.0512	-1.19	0.12	0.00	17.51	7.290	5.15385	7.10197	0.0
6.5775	85.0512	-1.19	0.12	0.00	17.51	7.290	5.15137	7.10377	0.0
6.5975	85.0512	-1.19	0.12	0.00	17.51	7.290	5.14889	7.10557	0.0
6.6175	85.0512	-1.19	0.12	0.00	17.51	7.290	5.14641	7.10737	2.0
6.6375	85.0512	-1.19	0.12	0.00	17.51	7.290	5.14393	7.10916	0.0
6.6575	85.0512	-1.19	0.12	0.00	17.51	7.290	5.14144	7.11096	4.0
6.6775	85.0512	-1.19	0.12	0.00	17.51	7.290	5.13896	7.11275	0.0
6.6975	85.0512	-1.19	0.12	0.00	17.51	7.290	5.13648	7.11455	0.0
6.7175	85.0512	-1.19	0.12	0.00	17.51	7.290	5.13399	7.11634	2.0
6.7375	85.0512	-1.19	0.12	0.00	17.51	7.290	5.13151	7.11813	0.0
6.7575	85.0512	-1.19	0.12	0.00	17.51	7.290	5.12902	7.11992	0.0
6.7775	85.0512	-1.19	0.12	0.00	17.51	7.290	5.12654	7.12171	0.0
6.7975	85.0512	-1.19	0.12	0.00	17.51	7.290	5.12405	7.12350	4.0
6.8175	85.0512	-1.19	0.12	0.00	17.51	7.290	5.12157	7.12529	0.0
6.8375	85.0512	-1.19	0.12	0.00	17.51	7.290	5.11908	7.12708	2.0
6.8575	85.0512	-1.19	0.12	0.00	17.51	7.290	5.11659	7.12886	2.0
6.8775	85.0512	-1.19	0.12	0.00	17.51	7.290	5.11410	7.13065	2.0
6.8975	85.0512	-1.19	0.12	0.00	17.51	7.290	5.11161	7.13243	4.0
6.9175	85.0512	-1.19	0.12	0.00	17.51	7.290	5.10912	7.13422	0.0
6.9375	85.0512	-1.19	0.12	0.00	17.51	7.290	5.10663	7.13600	2.0
6.9575	85.0512	-1.19	0.12	0.00	17.51	7.290	5.10414	7.13778	2.0
6.9775	85.0512	-1.19	0.12	0.00	17.51	7.290	5.10165	7.13956	0.0
6.9975	85.0512	-1.19	0.12	0.00	17.51	7.290	5.09916	7.14134	6.0
7.0175	85.0512	-1.19	0.12	0.00	17.51	7.290	5.09666	7.14312	2.0
7.0375	85.0512	-1.19	0.12	0.00	17.51	7.290	5.09417	7.14490	0.0
7.0575	85.0512	-1.19	0.12	0.00	17.51	7.290	5.09168	7.14668	0.0
7.0775	85.0512	-1.19	0.12	0.00	17.51	7.290	5.08918	7.14846	0.0
7.0975	85.0512	-1.19	0.12	0.00	17.51	7.290	5.08668	7.15023	0.0
7.1175	85.0512	-1.19	0.12	0.00	17.51	7.290	5.08419	7.15201	2.0
7.1375	85.0512	-1.19	0.12	0.00	17.51	7.290	5.08169	7.15378	0.0
7.1575	85.0512	-1.19	0.12	0.00	17.51	7.290	5.07919	7.15555	0.0
7.1775	85.0512	-1.19	0.12	0.00	17.51	7.290	5.07670	7.15733	2.0
7.1975	85.0512	-1.19	0.12	0.00	17.51	7.290	5.07420	7.15910	0.0
7.2175	85.0512	-1.19	0.12	0.00	17.51	7.290	5.07170	7.16087	0.0
7.2375	85.0512	-1.19	0.12	0.00	17.51	7.290	5.06920	7.16264	2.0
7.2575	85.0512	-1.19	0.12	0.00	17.51	7.290	5.06670	7.16441	0.0
7.2775	85.0512	-1.19	0.12	0.00	17.51	7.290	5.06420	7.16618	4.0
7.2975	85.0512	-1.19	0.12	0.00	17.51	7.290	5.06169	7.16794	4.0
7.3175	85.0512	-1.19	0.12	0.00	17.51	7.290	5.05919	7.16971	2.0
7.3375	85.0512	-1.19	0.12	0.00	17.51	7.290	5.05669	7.17148	0.0
7.3575	85.0512	-1.19	0.12	0.00	17.51	7.290	5.05419	7.17324	2.0
7.3775	85.0512	-1.19	0.12	0.00	17.51	7.290	5.05168	7.17500	0.0
7.3975	85.0512	-1.19	0.12	0.00	17.51	7.290	5.04918	7.17677	0.0
7.4175	85.0512	-1.19	0.12	0.00	17.51	7.290	5.04667	7.17853	8.0
7.4375	85.0512	-1.19	0.12	0.00	17.51	7.290	5.04416	7.18029	2.0
7.4575	85.0512	-1.19	0.12	0.00	17.51	7.290	5.04166	7.18205	0.0
7.4775	85.0512	-1.19	0.12	0.00	17.51	7.290	5.03915	7.18381	0.0
7.4975	85.0512	-1.19	0.12	0.00	17.51	7.290	5.03664	7.18557	0.0
7.5175	85.0512	-1.19	0.12	0.00	17.51	7.290	5.03413	7.18733	2.0
7.5375	85.0512	-1.19	0.12	0.00	17.51	7.290	5.03163	7.18908	4.0
7.5575	85.0512	-1.19	0.12	0.00	17.51	7.290	5.02912	7.19084	0.0
7.5775	85.0512	-1.19	0.12	0.00	17.51	7.290	5.02661	7.19259	2.0
7.5975	85.0512	-1.19	0.12	0.00	17.51	7.290	5.02409	7.19435	2.0
7.6175	85.0512	-1.19	0.12	0.00	17.51	7.290	5.02158	7.19610	0.0
7.6375	85.0512	-1.19	0.12	0.00	17.51	7.290	5.01907	7.19785	4.0
7.6575	85.0512	-1.19	0.12	0.00	17.51	7.290	5.01656	7.19961	0.0
7.6775	85.0512	-1.19	0.12	0.00	17.51	7.290	5.01404	7.20136	2.0
7.6975	85.0512	-1.19	0.12	0.00	17.51	7.290	5.01153	7.20311	0.0
7.7175	85.0512	-1.19	0.12	0.00	17.51	7.290	5.00902	7.20485	6.0
7.7375	85.0512	-1.19	0.12	0.00	17.51	7.290	5.00650	7.20660	2.0
7.7575	85.0512	-1.19	0.12	0.00	17.51	7.290	5.00398	7.20835	0.0
7.7775	85.0512	-1.19	0.12	0.00	17.51	7.290	5.00147	7.21010	0.0
7.7975	85.0512	-1.19	0.12	0.00	17.51	7.290	4.99895	7.21184	0.0
7.8175	85.0512	-1.19	0.12	0.00	17.51	7.290	4.99643	7.21359	0.0
7.8375	85.0512	-1.19	0.12	0.00	17.51	7.290	4.99391	7.21533	6.0
7.8575	85.0512	-1.19	0.12	0.00	17.51	7.290	4.99140	7.21707	6.0
7.8775	85.0512	-1.19	0.12	0.00	17.51	7.290	4.98888	7.21881	4.0
7.8975	85.0512	-1.19	0.12	0.00	17.51	7.290	4.98636	7.22056	0.0
7.9175	85.0512	-1.19	0.12	0.00	17.51	7.290	4.98384	7.22230	0.0
7.9375	85.0512	-1.19	0.12	0.00	17.51	7.290	4.98131	7.22403	0.0
7.9575	85.0512	-1.19	0.12	0.00	17.51	7.290	4.97879	7.22577	0.0
7.9775	85.0512	-1.19	0.12	0.00	17.51	7.290	4.97627	7.22751	0.0
7.9975	85.0512	-1.19	0.12	0.00	17.51	7.290	4.97375	7.22925	2.0
8.0175	85.0512	-1.19	0.12	0.00	17.51	7.290	4.97122	7.23098	2.0
8.0375	85.0512	-1.19	0.12	0.00	17.51	7.290	4.96870	7.23272	2.0
8.0575	85.0512	-1.19	0.12	0.00	17.51	7.290	4.96617	7.23445	0.0
8.0775	85.0512	-1.19	0.12	0.00	17.51	7.290	4.96365	7.23618	0.0
8.0975	85.0512	-1.19	0.12	0.00	17.51	7.290	4.96112	7.23792	2.0
8.1175	85.0512	-1.19	0.12	0.00	17.51	7.290	4.95859	7.23965	0.0
8.1375	85.0512	-1.19	0.12	0.00	17.51	7.290	4.95607	7.24138	2.0
8.1575	85.0512	-1.19	0.12	0.00	17.51	7.290	4.95354	7.24311	0.0
8.1775	85.0512	-1.19	0.12	0.00	17.51	7.290	4.95101	7.24484	0.0
8.1975	85.0512	-1.19	0.12	0.00	17.51	7.290	4.94848	7.24656	0.0
8.2175	85.0512	-1.19	0.12	0.00	17.51	7.290	4.94595	7.24829	0.0
8.2375	85.0512	-1.19	0.12	0.00	17.51	7.290	4.94342	7.25002	4.0
8.2575	85.0512	-1.19	0.12	0.00	17.51	7.290	4.94089	7.25174	0.0
8.2775	85.0512	-1.19	0.12	0.00	17.51	7.290	4.93836	7.25347	4.0
8.2975	85.0512	-1.19	0.12	0.00	17.51	7.290	4.93583	7.25519	0.0
8.3175	85.0512	-1.19	0.12	0.00	17.51	7.290	4.93329	7.25691	0.0
8.3375	85.0512	-1.19	0.12	0.00	17.51	7.290	4.93076	7.25863	0.0
8.3575	85.0512	-1.19	0.12	0.00	17.51	7.290	4.92823	7.26036	0.0
8.3775	85.0512	-1.19	0.12	0.00	17.51	7.290	4.92569	7.26208	2.0
8.3975	85.0512	-1.19	0.12	0.00	17.51	7.290	4.92316	7.26379	2.0
8.4175	85.0512	-1.19	0.12	0.00	17.51	7.290	4.92062	7.26551	2.0
8.4375	85.0512	-1.19	0.12	0.00	17.51	7.290	4.91808	7.26723	0.0
8.4575	85.0512	-1.19	0.12	0.00	17.51	7.290	4.91555	7.26895	0.0
8.4775	85.0512	-1.19	0.12	0.00	17.51	7.290	4.91301	7.27066	2.0
8.4975	85.0512	-1.19	0.12	0.00	17.51	7.290	4.91047	7.27238	4.0
8.5175	85.0512	-1.19	0.12	0.00	17.51	7.290	4.90793	7.27409	0.0
8.5375	85.0512	-1.19	0.12	0.00	17.51	7.290	4.90539	7.27580	0.0
8.5575	85.0512	-1.19	0.12	0.00	17.51	7.290	4.90285	7.27751	0.0

6.5675	85.0712	-1.19	0.12	0.00	17.51	7.290	5.15483	7.10332	0.0
6.5875	85.0712	-1.19	0.12	0.00	17.51	7.290	5.15235	7.10512	0.0
6.6075	85.0712	-1.19	0.12	0.00	17.51	7.290	5.14987	7.10692	0.0
6.6275	85.0712	-1.19	0.12	0.00	17.51	7.290	5.14739	7.10872	2.0
6.6475	85.0712	-1.19	0.12	0.00	17.51	7.290	5.14490	7.11052	0.0
6.6675	85.0712	-1.19	0.12	0.00	17.51	7.290	5.14242	7.11231	2.0
6.6875	85.0712	-1.19	0.12	0.00	17.51	7.290	5.13994	7.11411	0.0
6.7075	85.0712	-1.19	0.12	0.00	17.51	7.290	5.13746	7.11590	0.0
6.7275	85.0712	-1.19	0.12	0.00	17.51	7.290	5.13497	7.11769	0.0
6.7475	85.0712	-1.19	0.12	0.00	17.51	7.290	5.13249	7.11948	0.0
6.7675	85.0712	-1.19	0.12	0.00	17.51	7.290	5.13000	7.12128	0.0
6.7875	85.0712	-1.19	0.12	0.00	17.51	7.290	5.12751	7.12307	2.0
6.8075	85.0712	-1.19	0.12	0.00	17.51	7.290	5.12503	7.12485	0.0
6.8275	85.0712	-1.19	0.12	0.00	17.51	7.290	5.12254	7.12664	0.0
6.8475	85.0712	-1.19	0.12	0.00	17.51	7.290	5.12005	7.12843	2.0
6.8675	85.0712	-1.19	0.12	0.00	17.51	7.290	5.11756	7.13022	0.0
6.8875	85.0712	-1.19	0.12	0.00	17.51	7.290	5.11507	7.13200	2.0
6.9075	85.0712	-1.19	0.12	0.00	17.51	7.290	5.11259	7.13379	0.0
6.9275	85.0712	-1.19	0.12	0.00	17.51	7.290	5.11009	7.13557	2.0
6.9475	85.0712	-1.19	0.12	0.00	17.51	7.290	5.10760	7.13736	0.0
6.9675	85.0712	-1.19	0.12	0.00	17.51	7.290	5.10511	7.13914	2.0
6.9875	85.0712	-1.19	0.12	0.00	17.51	7.290	5.10262	7.14092	0.0
7.0075	85.0712	-1.19	0.12	0.00	17.51	7.290	5.10013	7.14270	4.0
7.0275	85.0712	-1.19	0.12	0.00	17.51	7.290	5.09763	7.14448	0.0
7.0475	85.0712	-1.19	0.12	0.00	17.51	7.290	5.09514	7.14626	0.0
7.0675	85.0712	-1.19	0.12	0.00	17.51	7.290	5.09264	7.14804	2.0
7.0875	85.0712	-1.19	0.12	0.00	17.51	7.290	5.09015	7.14982	0.0
7.1075	85.0712	-1.19	0.12	0.00	17.51	7.290	5.08765	7.15159	2.0
7.1275	85.0712	-1.19	0.12	0.00	17.51	7.290	5.08516	7.15337	4.0
7.1475	85.0712	-1.19	0.12	0.00	17.51	7.290	5.08266	7.15514	0.0
7.1675	85.0712	-1.19	0.12	0.00	17.51	7.290	5.08016	7.15692	2.0
7.1875	85.0712	-1.19	0.12	0.00	17.51	7.290	5.07766	7.15869	4.0
7.2075	85.0712	-1.19	0.12	0.00	17.51	7.290	5.07516	7.16046	2.0
7.2275	85.0712	-1.19	0.12	0.00	17.51	7.290	5.07266	7.16223	4.0
7.2475	85.0712	-1.19	0.12	0.00	17.51	7.290	5.07016	7.16400	2.0
7.2675	85.0712	-1.19	0.12	0.00	17.51	7.290	5.06766	7.16577	0.0
7.2875	85.0712	-1.19	0.12	0.00	17.51	7.290	5.06516	7.16754	0.0
7.3075	85.0712	-1.19	0.12	0.00	17.51	7.290	5.06266	7.16931	2.0
7.3275	85.0712	-1.19	0.12	0.00	17.51	7.290	5.06015	7.17107	0.0
7.3475	85.0712	-1.19	0.12	0.00	17.51	7.290	5.05765	7.17284	0.0
7.3675	85.0712	-1.19	0.12	0.00	17.51	7.290	5.05515	7.17461	0.0
7.3875	85.0712	-1.19	0.12	0.00	17.51	7.290	5.05264	7.17637	8.0
7.4075	85.0712	-1.19	0.12	0.00	17.51	7.290	5.05014	7.17813	2.0
7.4275	85.0712	-1.19	0.12	0.00	17.51	7.290	5.04763	7.17989	2.0
7.4475	85.0712	-1.19	0.12	0.00	17.51	7.290	5.04512	7.18166	2.0
7.4675	85.0712	-1.19	0.12	0.00	17.51	7.290	5.04262	7.18342	2.0
7.4875	85.0712	-1.19	0.12	0.00	17.51	7.290	5.04011	7.18518	0.0
7.5075	85.0712	-1.19	0.12	0.00	17.51	7.290	5.03760	7.18694	0.0
7.5275	85.0712	-1.19	0.12	0.00	17.51	7.290	5.03509	7.18869	2.0
7.5475	85.0712	-1.19	0.12	0.00	17.51	7.290	5.03258	7.19045	4.0
7.5675	85.0712	-1.19	0.12	0.00	17.51	7.290	5.03007	7.19221	6.0
7.5875	85.0712	-1.19	0.12	0.00	17.51	7.290	5.02756	7.19396	0.0
7.6075	85.0712	-1.19	0.12	0.00	17.51	7.290	5.02505	7.19572	0.0
7.6275	85.0712	-1.19	0.12	0.00	17.51	7.290	5.02254	7.19747	0.0
7.6475	85.0712	-1.19	0.12	0.00	17.51	7.290	5.02003	7.19922	4.0
7.6675	85.0712	-1.19	0.12	0.00	17.51	7.290	5.01751	7.20098	0.0
7.6875	85.0712	-1.19	0.12	0.00	17.51	7.290	5.01500	7.20273	4.0
7.7075	85.0712	-1.19	0.12	0.00	17.51	7.290	5.01248	7.20448	0.0
7.7275	85.0712	-1.19	0.12	0.00	17.51	7.290	5.00997	7.20623	0.0
7.7475	85.0712	-1.19	0.12	0.00	17.51	7.290	5.00745	7.20797	2.0
7.7675	85.0712	-1.19	0.12	0.00	17.51	7.290	5.00494	7.20972	2.0
7.7875	85.0712	-1.19	0.12	0.00	17.51	7.290	5.00242	7.21147	2.0
7.8075	85.0712	-1.19	0.12	0.00	17.51	7.290	4.99990	7.21321	2.0
7.8275	85.0712	-1.19	0.12	0.00	17.51	7.290	4.99738	7.21496	0.0
7.8475	85.0712	-1.19	0.12	0.00	17.51	7.290	4.99486	7.21670	2.0
7.8675	85.0712	-1.19	0.12	0.00	17.51	7.290	4.99235	7.21845	2.0
7.8875	85.0712	-1.19	0.12	0.00	17.51	7.290	4.98983	7.22019	0.0
7.9075	85.0712	-1.19	0.12	0.00	17.51	7.290	4.98730	7.22193	0.0
7.9275	85.0712	-1.19	0.12	0.00	17.51	7.290	4.98478	7.22367	2.0
7.9475	85.0712	-1.19	0.12	0.00	17.51	7.290	4.98226	7.22541	0.0
7.9675	85.0712	-1.19	0.12	0.00	17.51	7.290	4.97974	7.22715	0.0
7.9875	85.0712	-1.19	0.12	0.00	17.51	7.290	4.97722	7.22889	0.0
8.0075	85.0712	-1.19	0.12	0.00	17.51	7.290	4.97469	7.23062	2.0
8.0275	85.0712	-1.19	0.12	0.00	17.51	7.290	4.97217	7.23236	0.0
8.0475	85.0712	-1.19	0.12	0.00	17.51	7.290	4.96964	7.23409	0.0
8.0675	85.0712	-1.19	0.12	0.00	17.51	7.290	4.96712	7.23583	0.0
8.0875	85.0712	-1.19	0.12	0.00	17.51	7.290	4.96459	7.23756	0.0
8.1075	85.0712	-1.19	0.12	0.00	17.51	7.290	4.96207	7.23929	0.0
8.1275	85.0712	-1.19	0.12	0.00	17.51	7.290	4.95954	7.24103	4.0
8.1475	85.0712	-1.19	0.12	0.00	17.51	7.290	4.95701	7.24276	4.0
8.1675	85.0712	-1.19	0.12	0.00	17.51	7.290	4.95448	7.24449	0.0
8.1875	85.0712	-1.19	0.12	0.00	17.51	7.290	4.95195	7.24622	0.0
8.2075	85.0712	-1.19	0.12	0.00	17.51	7.290	4.94942	7.24794	0.0
8.2275	85.0712	-1.19	0.12	0.00	17.51	7.290	4.94689	7.24967	0.0
8.2475	85.0712	-1.19	0.12	0.00	17.51	7.290	4.94436	7.25140	0.0
8.2675	85.0712	-1.19	0.12	0.00	17.51	7.290	4.94183	7.25312	2.0
8.2875	85.0712	-1.19	0.12	0.00	17.51	7.290	4.93930	7.25485	2.0
8.3075	85.0712	-1.19	0.12	0.00	17.51	7.290	4.93676	7.25657	2.0
8.3275	85.0712	-1.19	0.12	0.00	17.51	7.290	4.93423	7.25829	0.0
8.3475	85.0712	-1.19	0.12	0.00	17.51	7.290	4.93170	7.26002	0.0
8.3675	85.0712	-1.19	0.12	0.00	17.51	7.290	4.92916	7.26174	2.0
8.3875	85.0712	-1.19	0.12	0.00	17.51	7.290	4.92663	7.26346	0.0
8.4075	85.0712	-1.19	0.12	0.00	17.51	7.290	4.92409	7.26518	0.0
8.4275	85.0712	-1.19	0.12	0.00	17.51	7.290	4.92156	7.26689	0.0
8.4475	85.0712	-1.19	0.12	0.00	17.51	7.290	4.91902	7.26861	0.0
8.4675	85.0712	-1.19	0.12	0.00	17.51	7.290	4.91648	7.27033	2.0
8.4875	85.0712	-1.19	0.12	0.00	17.51	7.290	4.91394	7.27204	0.0
8.5075	85.0712	-1.19	0.12	0.00	17.51	7.290	4.91140	7.27376	2.0
8.5275	85.0712	-1.19	0.12	0.00	17.51	7.290	4.90887	7.27547	0.0
8.5475	85.0712	-1.19	0.12	0.00	17.51	7.290	4.90633	7.27719	2.0
8.5675	85.0712	-1.19	0.12	0.00	17.51	7.290	4.90378	7.27890	0.0

6.5775	85.0912	-1.19	0.12	0.00	17.51	7.290	5.15581	7.10468	2.0
6.5975	85.0912	-1.19	0.12	0.00	17.51	7.290	5.15333	7.10648	0.0
6.6175	85.0912	-1.19	0.12	0.00	17.51	7.290	5.15085	7.10827	0.0
6.6375	85.0912	-1.19	0.12	0.00	17.51	7.290	5.14837	7.11007	2.0
6.6575	85.0912	-1.19	0.12	0.00	17.51	7.290	5.14588	7.11187	0.0
6.6775	85.0912	-1.19	0.12	0.00	17.51	7.290	5.14340	7.11366	0.0
6.6975	85.0912	-1.19	0.12	0.00	17.51	7.290	5.14092	7.11546	0.0
6.7175	85.0912	-1.19	0.12	0.00	17.51	7.290	5.13843	7.11725	0.0
6.7375	85.0912	-1.19	0.12	0.00	17.51	7.290	5.13595	7.11905	4.0
6.7575	85.0912	-1.19	0.12	0.00	17.51	7.290	5.13346	7.12084	0.0
6.7775	85.0912	-1.19	0.12	0.00	17.51	7.290	5.13098	7.12263	4.0
6.7975	85.0912	-1.19	0.12	0.00	17.51	7.290	5.12849	7.12442	0.0
6.8175	85.0912	-1.19	0.12	0.00	17.51	7.290	5.12600	7.12621	2.0
6.8375	85.0912	-1.19	0.12	0.00	17.51	7.290	5.12352	7.12800	0.0
6.8575	85.0912	-1.19	0.12	0.00	17.51	7.290	5.12103	7.12979	0.0
6.8775	85.0912	-1.19	0.12	0.00	17.51	7.290	5.11854	7.13157	2.0
6.8975	85.0912	-1.19	0.12	0.00	17.51	7.290	5.11605	7.13336	2.0
6.9175	85.0912	-1.19	0.12	0.00	17.51	7.290	5.11356	7.13515	0.0
6.9375	85.0912	-1.19	0.12	0.00	17.51	7.290	5.11107	7.13693	4.0
6.9575	85.0912	-1.19	0.12	0.00	17.51	7.290	5.10858	7.13871	0.0
6.9775	85.0912	-1.19	0.12	0.00	17.51	7.290	5.10608	7.14050	2.0
6.9975	85.0912	-1.19	0.12	0.00	17.51	7.290	5.10359	7.14228	4.0
7.0175	85.0912	-1.19	0.12	0.00	17.51	7.290	5.10110	7.14406	2.0
7.0375	85.0912	-1.19	0.12	0.00	17.51	7.290	5.09860	7.14584	0.0
7.0575	85.0912	-1.19	0.12	0.00	17.51	7.290	5.09611	7.14762	4.0
7.0775	85.0912	-1.19	0.12	0.00	17.51	7.290	5.09361	7.14940	0.0
7.0975	85.0912	-1.19	0.12	0.00	17.51	7.290	5.09112	7.15118	0.0
7.1175	85.0912	-1.19	0.12	0.00	17.51	7.290	5.08862	7.15295	0.0
7.1375	85.0912	-1.19	0.12	0.00	17.51	7.290	5.08612	7.15473	0.0
7.1575	85.0912	-1.19	0.12	0.00	17.51	7.290	5.08363	7.15650	4.0
7.1775	85.0912	-1.19	0.12	0.00	17.51	7.290	5.08113	7.15828	0.0
7.1975	85.0912	-1.19	0.12	0.00	17.51	7.290	5.07863	7.16005	2.0
7.2175	85.0912	-1.19	0.12	0.00	17.51	7.290	5.07613	7.16182	6.0
7.2375	85.0912	-1.19	0.12	0.00	17.51	7.290	5.07363	7.16359	0.0
7.2575	85.0912	-1.19	0.12	0.00	17.51	7.290	5.07113	7.16536	2.0
7.2775	85.0912	-1.19	0.12	0.00	17.51	7.290	5.06863	7.16713	0.0
7.2975	85.0912	-1.19	0.12	0.00	17.51	7.290	5.06612	7.16890	0.0
7.3175	85.0912	-1.19	0.12	0.00	17.51	7.290	5.06362	7.17067	0.0
7.3375	85.0912	-1.19	0.12	0.00	17.51	7.290	5.06112	7.17244	0.0
7.3575	85.0912	-1.19	0.12	0.00	17.51	7.290	5.05861	7.17420	0.0
7.3775	85.0912	-1.19	0.12	0.00	17.51	7.290	5.05611	7.17597	2.0
7.3975	85.0912	-1.19	0.12	0.00	17.51	7.290	5.05360	7.17773	0.0
7.4175	85.0912	-1.19	0.12	0.00	17.51	7.290	5.05110	7.17950	2.0
7.4375	85.0912	-1.19	0.12	0.00	17.51	7.290	5.04859	7.18126	0.0
7.4575	85.0912	-1.19	0.12	0.00	17.51	7.290	5.04608	7.18302	2.0
7.4775	85.0912	-1.19	0.12	0.00	17.51	7.290	5.04358	7.18478	0.0
7.4975	85.0912	-1.19	0.12	0.00	17.51	7.290	5.04107	7.18654	0.0
7.5175	85.0912	-1.19	0.12	0.00	17.51	7.290	5.03856	7.18830	0.0
7.5375	85.0912	-1.19	0.12	0.00	17.51	7.290	5.03605	7.19006	0.0
7.5575	85.0912	-1.19	0.12	0.00	17.51	7.290	5.03354	7.19182	0.0
7.5775	85.0912	-1.19	0.12	0.00	17.51	7.290	5.03103	7.19358	0.0
7.5975	85.0912	-1.19	0.12	0.00	17.51	7.290	5.02852	7.19533	0.0
7.6175	85.0912	-1.19	0.12	0.00	17.51	7.290	5.02601	7.19709	2.0
7.6375	85.0912	-1.19	0.12	0.00	17.51	7.290	5.02349	7.19884	4.0
7.6575	85.0912	-1.19	0.12	0.00	17.51	7.290	5.02098	7.20059	0.0
7.6775	85.0912	-1.19	0.12	0.00	17.51	7.290	5.01847	7.20235	2.0
7.6975	85.0912	-1.19	0.12	0.00	17.51	7.290	5.01595	7.20410	0.0
7.7175	85.0912	-1.19	0.12	0.00	17.51	7.290	5.01344	7.20585	2.0
7.7375	85.0912	-1.19	0.12	0.00	17.51	7.290	5.01092	7.20760	4.0
7.7575	85.0912	-1.19	0.12	0.00	17.51	7.290	5.00841	7.20935	0.0
7.7775	85.0912	-1.19	0.12	0.00	17.51	7.290	5.00589	7.21109	0.0
7.7975	85.0912	-1.19	0.12	0.00	17.51	7.290	5.00337	7.21284	0.0
7.8175	85.0912	-1.19	0.12	0.00	17.51	7.290	5.00085	7.21459	0.0
7.8375	85.0912	-1.19	0.12	0.00	17.51	7.290	4.99833	7.21633	0.0
7.8575	85.0912	-1.19	0.12	0.00	17.51	7.290	4.99581	7.21808	0.0
7.8775	85.0912	-1.19	0.12	0.00	17.51	7.290	4.99329	7.21982	0.0
7.8975	85.0912	-1.19	0.12	0.00	17.51	7.290	4.99077	7.22156	2.0
7.9175	85.0912	-1.19	0.12	0.00	17.51	7.290	4.98825	7.22330	4.0
[...]
9.8475	88.9912	-1.19	0.12	0.00	17.51	7.290	5.17292	7.48512	4.0
9.8675	88.9912	-1.19	0.12	0.00	17.51	7.290	5.17030	7.48692	2.0
9.8875	88.9912	-1.19	0.12	0.00	17.51	7.290	5.16769	7.48873	0.0
9.9075	88.9912	-1.19	0.12	0.00	17.51	7.290	5.16508	7.49053	2.0
9.9275	88.9912	-1.19	0.12	0.00	17.51	7.290	5.16246	7.49233	2.0
9.9475	88.9912	-1.19	0.12	0.00	17.51	7.290	5.15985	7.49414	2.0
9.9675	88.9912	-1.19	0.12	0.00	17.51	7.290	5.15723	7.49594	0.0
9.9875	88.9912	-1.19	0.12	0.00	17.51	7.290	5.15461	7.49774	2.0
10.0075	88.9912	-1.19	0.12	0.00	17.51	7.290	5.15199	7.49954	0.0
10.0275	88.9912	-1.19	0.12	0.00	17.51	7.290	5.14938	7.50133	2.0
10.0475	88.9912	-1.19	0.12	0.00	17.51	7.290	5.14676	7.50313	0.0
10.0675	88.9912	-1.19	0.12	0.00	17.51	7.290	5.14414	7.50493	2.0
10.0875	88.9912	-1.19	0.12	0.00	17.51	7.290	5.14152	7.50672	2.0
10.1075	88.9912	-1.19	0.12	0.00	17.51	7.290	5.13890	7.50852	2.0
10.1275	88.9912	-1.19	0.12	0.00	17.51	7.290	5.13628	7.51031	2.0
10.1475	88.9912	-1.19	0.12	0.00	17.51	7.290	5.13365	7.51210	2.0
10.1675	88.9912	-1.19	0.12	0.00	17.51	7.290	5.13103	7.51389	4.0
10.1875	88.9912	-1.19	0.12	0.00	17.51	7.290	5.12841	7.51568	0.0
10.2075	88.9912	-1.19	0.12	0.00	17.51	7.290	5.12579	7.51747	0.0
10.2275	88.9912	-1.19	0.12	0.00	17.51	7.290	5.12316	7.51926	0.0
10.2475	88.9912	-1.19	0.12	0.00	17.51	7.290	5.12054	7.52105	4.0
10.2675	88.9912	-1.19	0.12	0.00	17.51	7.290	5.11791	7.52284	0.0
10.2875	88.9912	-1.19	0.12	0.00	17.51	7.290	5.11528	7.52462	2.0
10.3075	88.9912	-1.19	0.12	0.00	17.51	7.290	5.11266	7.52641	2.0
10.3275	88.9912	-1.19	0.12	0.00	17.51	7.290	5.11003	7.52819	0.0
10.3475	88.9912	-1.19	0.12	0.00	17.51	7.290	5.10740	7.52998	2.0
10.3675	88.9912	-1.19	0.12	0.00	17.51	7.290	5.10477	7.53176	2.0
10.3875	88.9912	-1.19	0.12	0.00	17.51	7.290	5.10214	7.53354	0.0
10.4075	88.9912	-1.19	0.12	0.00	17.51	7.290	5.09951	7.53532	0.0
10.4275	88.9912	-1.19	0.12	0.00	17.51	7.290	5.09688	7.53710	0.0
10.4475	88.9912	-1.19	0.12	0.00	17.51	7.290	5.09425	7.53888	2.0
10.4675	88.9912	-1.19	0.12	0.00	17.51	7.290	5.09162	7.54066	0.0
10.4875	88.9912	-1.19	0.12	0.00	17.51	7.290	5.08899	7.54243	0.0
10.5075	88.9912	-1.19	0.12	0.00	17.51	7.290	5.08635	7.54421	2.0
10.5275	88.9912	-1.19	0.12	0.00	17.51	7.290	5.08372	7.54598	2.0

8.5375	89.0112	-1.19	0.12	0.00	17.51	7.290	5.34492	7.36528	2.0
8.5575	89.0112	-1.19	0.12	0.00	17.51	7.290	5.34235	7.36714	0.0
8.5775	89.0112	-1.19	0.12	0.00	17.51	7.290	5.33978	7.36901	0.0
8.5975	89.0112	-1.19	0.12	0.00	17.51	7.290	5.33721	7.37087	0.0
8.6175	89.0112	-1.19	0.12	0.00	17.51	7.290	5.33463	7.37273	0.0
8.6375	89.0112	-1.19	0.12	0.00	17.51	7.290	5.33206	7.37459	2.0
8.6575	89.0112	-1.19	0.12	0.00	17.51	7.290	5.32949	7.37645	2.0
8.6775	89.0112	-1.19	0.12	0.00	17.51	7.290	5.32691	7.37831	0.0
8.6975	89.0112	-1.19	0.12	0.00	17.51	7.290	5.32433	7.38017	4.0
8.7175	89.0112	-1.19	0.12	0.00	17.51	7.290	5.32176	7.38203	2.0
8.7375	89.0112	-1.19	0.12	0.00	17.51	7.290	5.31918	7.38389	6.0
8.7575	89.0112	-1.19	0.12	0.00	17.51	7.290	5.31660	7.38574	0.0
8.7775	89.0112	-1.19	0.12	0.00	17.51	7.290	5.31403	7.38760	0.0
8.7975	89.0112	-1.19	0.12	0.00	17.51	7.290	5.31145	7.38945	0.0
8.8175	89.0112	-1.19	0.12	0.00	17.51	7.290	5.30887	7.39131	2.0
8.8375	89.0112	-1.19	0.12	0.00	17.51	7.290	5.30629	7.39316	2.0
8.8575	89.0112	-1.19	0.12	0.00	17.51	7.290	5.30370	7.39501	2.0
8.8775	89.0112	-1.19	0.12	0.00	17.51	7.290	5.30112	7.39686	0.0
8.8975	89.0112	-1.19	0.12	0.00	17.51	7.290	5.29854	7.39871	0.0
8.9175	89.0112	-1.19	0.12	0.00	17.51	7.290	5.29596	7.40056	0.0
8.9375	89.0112	-1.19	0.12	0.00	17.51	7.290	5.29337	7.40241	4.0
8.9575	89.0112	-1.19	0.12	0.00	17.51	7.290	5.29079	7.40426	2.0
8.9775	89.0112	-1.19	0.12	0.00	17.51	7.290	5.28821	7.40610	0.0
8.9975	89.0112	-1.19	0.12	0.00	17.51	7.290	5.28562	7.40795	2.0
9.0175	89.0112	-1.19	0.12	0.00	17.51	7.290	5.28303	7.40979	4.0
9.0375	89.0112	-1.19	0.12	0.00	17.51	7.290	5.28045	7.41164	0.0
9.0575	89.0112	-1.19	0.12	0.00	17.51	7.290	5.27786	7.41348	4.0
9.0775	89.0112	-1.19	0.12	0.00	17.51	7.290	5.27527	7.41532	4.0
9.0975	89.0112	-1.19	0.12	0.00	17.51	7.290	5.27268	7.41716	2.0
9.1175	89.0112	-1.19	0.12	0.00	17.51	7.290	5.27009	7.41900	2.0
9.1375	89.0112	-1.19	0.12	0.00	17.51	7.290	5.26750	7.42084	0.0
9.1575	89.0112	-1.19	0.12	0.00	17.51	7.290	5.26491	7.42268	2.0
9.1775	89.0112	-1.19	0.12	0.00	17.51	7.290	5.26232	7.42452	0.0
9.1975	89.0112	-1.19	0.12	0.00	17.51	7.290	5.25973	7.42636	0.0
9.2175	89.0112	-1.19	0.12	0.00	17.51	7.290	5.25714	7.42819	2.0
9.2375	89.0112	-1.19	0.12	0.00	17.51	7.290	5.25454	7.43003	0.0
9.2575	89.0112	-1.19	0.12	0.00	17.51	7.290	5.25195	7.43186	4.0
9.2775	89.0112	-1.19	0.12	0.00	17.51	7.290	5.24935	7.43369	2.0
9.2975	89.0112	-1.19	0.12	0.00	17.51	7.290	5.24676	7.43552	6.0
9.3175	89.0112	-1.19	0.12	0.00	17.51	7.290	5.24416	7.43735	2.0
9.3375	89.0112	-1.19	0.12	0.00	17.51	7.290	5.24157	7.43918	0.0
9.3575	89.0112	-1.19	0.12	0.00	17.51	7.290	5.23897	7.44101	0.0
9.3775	89.0112	-1.19	0.12	0.00	17.51	7.290	5.23637	7.44284	0.0
9.3975	89.0112	-1.19	0.12	0.00	17.51	7.290	5.23377	7.44467	2.0
9.4175	89.0112	-1.19	0.12	0.00	17.51	7.290	5.23117	7.44650	0.0
9.4375	89.0112	-1.19	0.12	0.00	17.51	7.290	5.22858	7.44832	0.0
9.4575	89.0112	-1.19	0.12	0.00	17.51	7.290	5.22598	7.45015	2.0
9.4775	89.0112	-1.19	0.12	0.00	17.51	7.290	5.22337	7.45197	2.0
9.4975	89.0112	-1.19	0.12	0.00	17.51	7.290	5.22077	7.45379	2.0
9.5175	89.0112	-1.19	0.12	0.00	17.51	7.290	5.21817	7.45561	0.0
9.5375	89.0112	-1.19	0.12	0.00	17.51	7.290	5.21557	7.45744	2.0
9.5575	89.0112	-1.19	0.12	0.00	17.51	7.290	5.21296	7.45926	0.0
9.5775	89.0112	-1.19	0.12	0.00	17.51	7.290	5.21036	7.46108	2.0
9.5975	89.0112	-1.19	0.12	0.00	17.51	7.290	5.20776	7.46289	0.0
9.6175	89.0112	-1.19	0.12	0.00	17.51	7.290	5.20515	7.46471	0.0
9.6375	89.0112	-1.19	0.12	0.00	17.51	7.290	5.20254	7.46653	2.0
9.6575	89.0112	-1.19	0.12	0.00	17.51	7.290	5.19994	7.46834	2.0
9.6775	89.0112	-1.19	0.12	0.00	17.51	7.290	5.19733	7.47016	0.0
9.6975	89.0112	-1.19	0.12	0.00	17.51	7.290	5.19472	7.47197	2.0
9.7175	89.0112	-1.19	0.12	0.00	17.51	7.290	5.19211	7.47378	0.0
9.7375	89.0112	-1.19	0.12	0.00	17.51	7.290	5.18950	7.47560	2.0
9.7575	89.0112	-1.19	0.12	0.00	17.51	7.290	5.18689	7.47741	2.0
9.7775	89.0112	-1.19	0.12	0.00	17.51	7.290	5.18428	7.47922	2.0
9.7975	89.0112	-1.19	0.12	0.00	17.51	7.290	5.18167	7.48103	2.0
9.8175	89.0112	-1.19	0.12	0.00	17.51	7.290	5.17906	7.48283	2.0
9.8375	89.0112	-1.19	0.12	0.00	17.51	7.290	5.17645	7.48464	4.0
9.8575	89.0112	-1.19	0.12	0.00	17.51	7.290	5.17384	7.48645	0.0
9.8775	89.0112	-1.19	0.12	0.00	17.51	7.290	5.17122	7.48825	4.0
9.8975	89.0112	-1.19	0.12	0.00	17.51	7.290	5.16861	7.49006	2.0
9.9175	89.0112	-1.19	0.12	0.00	17.51	7.290	5.16599	7.49186	2.0
9.9375	89.0112	-1.19	0.12	0.00	17.51	7.290	5.16338	7.49367	0.0
9.9575	89.0112	-1.19	0.12	0.00	17.51	7.290	5.16076	7.49547	0.0
9.9775	89.0112	-1.19	0.12	0.00	17.51	7.290	5.15815	7.49727	2.0
9.9975	89.0112	-1.19	0.12	0.00	17.51	7.290	5.15553	7.49907	2.0
10.0175	89.0112	-1.19	0.12	0.00	17.51	7.290	5.15291	7.50087	0.0
10.0375	89.0112	-1.19	0.12	0.00	17.51	7.290	5.15029	7.50267	2.0
10.0575	89.0112	-1.19	0.12	0.00	17.51	7.290	5.14767	7.50446	2.0
10.0775	89.0112	-1.19	0.12	0.00	17.51	7.290	5.14505	7.50626	0.0
10.0975	89.0112	-1.19	0.12	0.00	17.51	7.290	5.14243	7.50806	2.0
10.1175	89.0112	-1.19	0.12	0.00	17.51	7.290	5.13981	7.50985	2.0
10.1375	89.0112	-1.19	0.12	0.00	17.51	7.290	5.13719	7.51164	0.0
10.1575	89.0112	-1.19	0.12	0.00	17.51	7.290	5.13457	7.51344	6.0
10.1775	89.0112	-1.19	0.12	0.00	17.51	7.290	5.13194	7.51523	2.0
10.1975	89.0112	-1.19	0.12	0.00	17.51	7.290	5.12932	7.51702	2.0
10.2175	89.0112	-1.19	0.12	0.00	17.51	7.290	5.12670	7.51881	2.0
10.2375	89.0112	-1.19	0.12	0.00	17.51	7.290	5.12407	7.52060	2.0
10.2575	89.0112	-1.19	0.12	0.00	17.51	7.290	5.12145	7.52239	0.0
10.2775	89.0112	-1.19	0.12	0.00	17.51	7.290	5.11882	7.52417	0.0
10.2975	89.0112	-1.19	0.12	0.00	17.51	7.290	5.11619	7.52596	0.0
10.3175	89.0112	-1.19	0.12	0.00	17.51	7.290	5.11357	7.52775	4.0
10.3375	89.0112	-1.19	0.12	0.00	17.51	7.290	5.11094	7.52953	2.0
10.3575	89.0112	-1.19	0.12	0.00	17.51	7.290	5.10831	7.53131	4.0
10.3775	89.0112	-1.19	0.12	0.00	17.51	7.290	5.10568	7.53310	0.0
10.3975	89.0112	-1.19	0.12	0.00	17.51	7.290	5.10305	7.53488	0.0
10.4175	89.0112	-1.19	0.12	0.00	17.51	7.290	5.10042	7.53666	2.0
10.4375	89.0112	-1.19	0.12	0.00	17.51	7.290	5.09779	7.53844	2.0
10.4575	89.0112	-1.19	0.12	0.00	17.51	7.290	5.09516	7.54022	0.0
10.4775	89.0112	-1.19	0.12	0.00	17.51	7.290	5.09252	7.54200	8.0
10.4975	89.0112	-1.19	0.12	0.00	17.51	7.290	5.08989	7.54377	2.0
10.5175	89.0112	-1.19	0.12	0.00	17.51	7.290	5.08726	7.54555	0.0
10.5375	89.0112	-1.19	0.12	0.00	17.51	7.290	5.08462	7.54732	2.0