File: Data/Omega/2.0deg-2.0deg-rsm-3h10mins_11358-as-grown_224_w-scans.dat
# filename: 2.0deg-2.0deg-rsm-3h10mins_11358-as-grown_224.dat
# reflection: (004)
# type: rotated into a series of omega scans
# x-axis: Omega_2Theta
#
# Omega	2Theta	Phi  	Chi   	X    	Y    	Z    	q_para	q_perp	Intensity
# [deg]	[deg] 	[deg]	[deg] 	[mm] 	[mm] 	[mm] 	[nm-1]	[nm-1]	[counts/s]
6.0787	85.0734	2.82	0.06	10.00	-20.00	7.326	5.21548	7.05914	0.0
6.0987	85.0734	2.82	0.06	10.00	-20.00	7.326	5.21302	7.06096	0.0
6.1187	85.0734	2.82	0.06	10.00	-20.00	7.326	5.21055	7.06278	4.0
6.1387	85.0734	2.82	0.06	10.00	-20.00	7.326	5.20809	7.06460	4.0
6.1587	85.0734	2.82	0.06	10.00	-20.00	7.326	5.20562	7.06641	0.0
6.1787	85.0734	2.82	0.06	10.00	-20.00	7.326	5.20316	7.06823	2.0
6.1987	85.0734	2.82	0.06	10.00	-20.00	7.326	5.20069	7.07005	0.0
6.2187	85.0734	2.82	0.06	10.00	-20.00	7.326	5.19822	7.07186	0.0
6.2387	85.0734	2.82	0.06	10.00	-20.00	7.326	5.19575	7.07367	4.0
6.2587	85.0734	2.82	0.06	10.00	-20.00	7.326	5.19328	7.07549	0.0
6.2787	85.0734	2.82	0.06	10.00	-20.00	7.326	5.19081	7.07730	4.0
6.2987	85.0734	2.82	0.06	10.00	-20.00	7.326	5.18834	7.07911	2.0
6.3187	85.0734	2.82	0.06	10.00	-20.00	7.326	5.18587	7.08092	0.0
6.3387	85.0734	2.82	0.06	10.00	-20.00	7.326	5.18340	7.08273	0.0
6.3587	85.0734	2.82	0.06	10.00	-20.00	7.326	5.18092	7.08454	2.0
6.3787	85.0734	2.82	0.06	10.00	-20.00	7.326	5.17845	7.08635	0.0
6.3987	85.0734	2.82	0.06	10.00	-20.00	7.326	5.17598	7.08816	0.0
6.4187	85.0734	2.82	0.06	10.00	-20.00	7.326	5.17350	7.08996	0.0
6.4387	85.0734	2.82	0.06	10.00	-20.00	7.326	5.17103	7.09177	0.0
6.4587	85.0734	2.82	0.06	10.00	-20.00	7.326	5.16855	7.09357	4.0
6.4787	85.0734	2.82	0.06	10.00	-20.00	7.326	5.16607	7.09538	2.0
6.4987	85.0734	2.82	0.06	10.00	-20.00	7.326	5.16360	7.09718	0.0
6.5187	85.0734	2.82	0.06	10.00	-20.00	7.326	5.16112	7.09898	4.0
6.5387	85.0734	2.82	0.06	10.00	-20.00	7.326	5.15864	7.10078	6.0
6.5587	85.0734	2.82	0.06	10.00	-20.00	7.326	5.15616	7.10258	0.0
6.5787	85.0734	2.82	0.06	10.00	-20.00	7.326	5.15368	7.10438	0.0
6.5987	85.0734	2.82	0.06	10.00	-20.00	7.326	5.15120	7.10618	0.0
6.6187	85.0734	2.82	0.06	10.00	-20.00	7.326	5.14872	7.10798	2.0
6.6387	85.0734	2.82	0.06	10.00	-20.00	7.326	5.14624	7.10978	4.0
6.6587	85.0734	2.82	0.06	10.00	-20.00	7.326	5.14376	7.11157	2.0
6.6787	85.0734	2.82	0.06	10.00	-20.00	7.326	5.14128	7.11337	2.0
6.6987	85.0734	2.82	0.06	10.00	-20.00	7.326	5.13879	7.11516	0.0
6.7187	85.0734	2.82	0.06	10.00	-20.00	7.326	5.13631	7.11695	2.0
6.7387	85.0734	2.82	0.06	10.00	-20.00	7.326	5.13382	7.11875	2.0
6.7587	85.0734	2.82	0.06	10.00	-20.00	7.326	5.13134	7.12054	0.0
6.7787	85.0734	2.82	0.06	10.00	-20.00	7.326	5.12885	7.12233	4.0
6.7987	85.0734	2.82	0.06	10.00	-20.00	7.326	5.12637	7.12412	2.0
6.8187	85.0734	2.82	0.06	10.00	-20.00	7.326	5.12388	7.12591	4.0
6.8387	85.0734	2.82	0.06	10.00	-20.00	7.326	5.12139	7.12770	0.0
6.8587	85.0734	2.82	0.06	10.00	-20.00	7.326	5.11890	7.12948	0.0
6.8787	85.0734	2.82	0.06	10.00	-20.00	7.326	5.11641	7.13127	2.0
6.8987	85.0734	2.82	0.06	10.00	-20.00	7.326	5.11392	7.13305	2.0
6.9187	85.0734	2.82	0.06	10.00	-20.00	7.326	5.11143	7.13484	0.0
6.9387	85.0734	2.82	0.06	10.00	-20.00	7.326	5.10894	7.13662	0.0
6.9587	85.0734	2.82	0.06	10.00	-20.00	7.326	5.10645	7.13841	4.0
6.9787	85.0734	2.82	0.06	10.00	-20.00	7.326	5.10396	7.14019	2.0
6.9987	85.0734	2.82	0.06	10.00	-20.00	7.326	5.10147	7.14197	0.0
7.0187	85.0734	2.82	0.06	10.00	-20.00	7.326	5.09897	7.14375	2.0
7.0387	85.0734	2.82	0.06	10.00	-20.00	7.326	5.09648	7.14553	0.0
7.0587	85.0734	2.82	0.06	10.00	-20.00	7.326	5.09399	7.14731	2.0
7.0787	85.0734	2.82	0.06	10.00	-20.00	7.326	5.09149	7.14909	4.0
7.0987	85.0734	2.82	0.06	10.00	-20.00	7.326	5.08899	7.15086	0.0
7.1187	85.0734	2.82	0.06	10.00	-20.00	7.326	5.08650	7.15264	0.0
7.1387	85.0734	2.82	0.06	10.00	-20.00	7.326	5.08400	7.15441	0.0
7.1587	85.0734	2.82	0.06	10.00	-20.00	7.326	5.08150	7.15619	0.0
7.1787	85.0734	2.82	0.06	10.00	-20.00	7.326	5.07901	7.15796	0.0
7.1987	85.0734	2.82	0.06	10.00	-20.00	7.326	5.07651	7.15973	2.0
7.2187	85.0734	2.82	0.06	10.00	-20.00	7.326	5.07401	7.16150	2.0
7.2387	85.0734	2.82	0.06	10.00	-20.00	7.326	5.07151	7.16328	2.0
7.2587	85.0734	2.82	0.06	10.00	-20.00	7.326	5.06901	7.16505	0.0
7.2787	85.0734	2.82	0.06	10.00	-20.00	7.326	5.06650	7.16681	2.0
7.2987	85.0734	2.82	0.06	10.00	-20.00	7.326	5.06400	7.16858	2.0
7.3187	85.0734	2.82	0.06	10.00	-20.00	7.326	5.06150	7.17035	2.0
7.3387	85.0734	2.82	0.06	10.00	-20.00	7.326	5.05900	7.17212	2.0
7.3587	85.0734	2.82	0.06	10.00	-20.00	7.326	5.05649	7.17388	0.0
7.3787	85.0734	2.82	0.06	10.00	-20.00	7.326	5.05399	7.17565	2.0
7.3987	85.0734	2.82	0.06	10.00	-20.00	7.326	5.05148	7.17741	0.0
7.4187	85.0734	2.82	0.06	10.00	-20.00	7.326	5.04898	7.17917	0.0
7.4387	85.0734	2.82	0.06	10.00	-20.00	7.326	5.04647	7.18093	2.0
7.4587	85.0734	2.82	0.06	10.00	-20.00	7.326	5.04396	7.18270	0.0
7.4787	85.0734	2.82	0.06	10.00	-20.00	7.326	5.04146	7.18446	2.0
7.4987	85.0734	2.82	0.06	10.00	-20.00	7.326	5.03895	7.18622	2.0
7.5187	85.0734	2.82	0.06	10.00	-20.00	7.326	5.03644	7.18797	0.0
7.5387	85.0734	2.82	0.06	10.00	-20.00	7.326	5.03393	7.18973	2.0
7.5587	85.0734	2.82	0.06	10.00	-20.00	7.326	5.03142	7.19149	0.0
7.5787	85.0734	2.82	0.06	10.00	-20.00	7.326	5.02891	7.19324	4.0
7.5987	85.0734	2.82	0.06	10.00	-20.00	7.326	5.02640	7.19500	2.0
7.6187	85.0734	2.82	0.06	10.00	-20.00	7.326	5.02389	7.19675	0.0
7.6387	85.0734	2.82	0.06	10.00	-20.00	7.326	5.02137	7.19851	2.0
7.6587	85.0734	2.82	0.06	10.00	-20.00	7.326	5.01886	7.20026	0.0
7.6787	85.0734	2.82	0.06	10.00	-20.00	7.326	5.01635	7.20201	0.0
7.6987	85.0734	2.82	0.06	10.00	-20.00	7.326	5.01383	7.20376	0.0
7.7187	85.0734	2.82	0.06	10.00	-20.00	7.326	5.01132	7.20551	0.0
7.7387	85.0734	2.82	0.06	10.00	-20.00	7.326	5.00880	7.20726	0.0
7.7587	85.0734	2.82	0.06	10.00	-20.00	7.326	5.00629	7.20901	0.0
7.7787	85.0734	2.82	0.06	10.00	-20.00	7.326	5.00377	7.21075	2.0
7.7987	85.0734	2.82	0.06	10.00	-20.00	7.326	5.00125	7.21250	0.0
7.8187	85.0734	2.82	0.06	10.00	-20.00	7.326	4.99873	7.21425	0.0
7.8387	85.0734	2.82	0.06	10.00	-20.00	7.326	4.99622	7.21599	2.0
7.8587	85.0734	2.82	0.06	10.00	-20.00	7.326	4.99370	7.21773	0.0
7.8787	85.0734	2.82	0.06	10.00	-20.00	7.326	4.99118	7.21948	0.0
7.8987	85.0734	2.82	0.06	10.00	-20.00	7.326	4.98866	7.22122	2.0
7.9187	85.0734	2.82	0.06	10.00	-20.00	7.326	4.98614	7.22296	0.0
7.9387	85.0734	2.82	0.06	10.00	-20.00	7.326	4.98361	7.22470	0.0
7.9587	85.0734	2.82	0.06	10.00	-20.00	7.326	4.98109	7.22644	0.0
7.9787	85.0734	2.82	0.06	10.00	-20.00	7.326	4.97857	7.22818	2.0
7.9987	85.0734	2.82	0.06	10.00	-20.00	7.326	4.97605	7.22991	0.0
8.0187	85.0734	2.82	0.06	10.00	-20.00	7.326	4.97352	7.23165	2.0
8.0387	85.0734	2.82	0.06	10.00	-20.00	7.326	4.97100	7.23339	2.0
8.0587	85.0734	2.82	0.06	10.00	-20.00	7.326	4.96847	7.23512	2.0
8.0787	85.0734	2.82	0.06	10.00	-20.00	7.326	4.96595	7.23686	2.0

6.0887	85.0934	2.82	0.06	10.00	-20.00	7.326	5.21648	7.06048	2.0
6.1087	85.0934	2.82	0.06	10.00	-20.00	7.326	5.21401	7.06230	0.0
6.1287	85.0934	2.82	0.06	10.00	-20.00	7.326	5.21155	7.06412	2.0
6.1487	85.0934	2.82	0.06	10.00	-20.00	7.326	5.20908	7.06594	0.0
6.1687	85.0934	2.82	0.06	10.00	-20.00	7.326	5.20661	7.06776	2.0
6.1887	85.0934	2.82	0.06	10.00	-20.00	7.326	5.20414	7.06957	0.0
6.2087	85.0934	2.82	0.06	10.00	-20.00	7.326	5.20168	7.07139	2.0
6.2287	85.0934	2.82	0.06	10.00	-20.00	7.326	5.19921	7.07321	0.0
6.2487	85.0934	2.82	0.06	10.00	-20.00	7.326	5.19674	7.07502	8.0
6.2687	85.0934	2.82	0.06	10.00	-20.00	7.326	5.19427	7.07683	2.0
6.2887	85.0934	2.82	0.06	10.00	-20.00	7.326	5.19180	7.07865	4.0
6.3087	85.0934	2.82	0.06	10.00	-20.00	7.326	5.18933	7.08046	2.0
6.3287	85.0934	2.82	0.06	10.00	-20.00	7.326	5.18686	7.08227	2.0
6.3487	85.0934	2.82	0.06	10.00	-20.00	7.326	5.18438	7.08408	0.0
6.3687	85.0934	2.82	0.06	10.00	-20.00	7.326	5.18191	7.08589	2.0
6.3887	85.0934	2.82	0.06	10.00	-20.00	7.326	5.17944	7.08770	2.0
6.4087	85.0934	2.82	0.06	10.00	-20.00	7.326	5.17696	7.08950	4.0
6.4287	85.0934	2.82	0.06	10.00	-20.00	7.326	5.17449	7.09131	0.0
6.4487	85.0934	2.82	0.06	10.00	-20.00	7.326	5.17201	7.09312	2.0
6.4687	85.0934	2.82	0.06	10.00	-20.00	7.326	5.16953	7.09492	4.0
6.4887	85.0934	2.82	0.06	10.00	-20.00	7.326	5.16706	7.09673	0.0
6.5087	85.0934	2.82	0.06	10.00	-20.00	7.326	5.16458	7.09853	2.0
6.5287	85.0934	2.82	0.06	10.00	-20.00	7.326	5.16210	7.10033	2.0
6.5487	85.0934	2.82	0.06	10.00	-20.00	7.326	5.15962	7.10213	4.0
6.5687	85.0934	2.82	0.06	10.00	-20.00	7.326	5.15714	7.10393	4.0
6.5887	85.0934	2.82	0.06	10.00	-20.00	7.326	5.15466	7.10573	2.0
6.6087	85.0934	2.82	0.06	10.00	-20.00	7.326	5.15218	7.10753	2.0
6.6287	85.0934	2.82	0.06	10.00	-20.00	7.326	5.14970	7.10933	0.0
6.6487	85.0934	2.82	0.06	10.00	-20.00	7.326	5.14722	7.11113	0.0
6.6687	85.0934	2.82	0.06	10.00	-20.00	7.326	5.14474	7.11292	0.0
6.6887	85.0934	2.82	0.06	10.00	-20.00	7.326	5.14225	7.11472	2.0
6.7087	85.0934	2.82	0.06	10.00	-20.00	7.326	5.13977	7.11651	2.0
6.7287	85.0934	2.82	0.06	10.00	-20.00	7.326	5.13729	7.11831	2.0
6.7487	85.0934	2.82	0.06	10.00	-20.00	7.326	5.13480	7.12010	2.0
6.7687	85.0934	2.82	0.06	10.00	-20.00	7.326	5.13231	7.12189	4.0
6.7887	85.0934	2.82	0.06	10.00	-20.00	7.326	5.12983	7.12368	2.0
6.8087	85.0934	2.82	0.06	10.00	-20.00	7.326	5.12734	7.12547	2.0
6.8287	85.0934	2.82	0.06	10.00	-20.00	7.326	5.12485	7.12726	0.0
6.8487	85.0934	2.82	0.06	10.00	-20.00	7.326	5.12237	7.12905	2.0
6.8687	85.0934	2.82	0.06	10.00	-20.00	7.326	5.11988	7.13084	0.0
6.8887	85.0934	2.82	0.06	10.00	-20.00	7.326	5.11739	7.13263	2.0
6.9087	85.0934	2.82	0.06	10.00	-20.00	7.326	5.11490	7.13441	0.0
6.9287	85.0934	2.82	0.06	10.00	-20.00	7.326	5.11241	7.13620	0.0
6.9487	85.0934	2.82	0.06	10.00	-20.00	7.326	5.10992	7.13798	4.0
6.9687	85.0934	2.82	0.06	10.00	-20.00	7.326	5.10742	7.13976	2.0
6.9887	85.0934	2.82	0.06	10.00	-20.00	7.326	5.10493	7.14155	0.0
7.0087	85.0934	2.82	0.06	10.00	-20.00	7.326	5.10244	7.14333	2.0
7.0287	85.0934	2.82	0.06	10.00	-20.00	7.326	5.09994	7.14511	4.0
7.0487	85.0934	2.82	0.06	10.00	-20.00	7.326	5.09745	7.14689	2.0
7.0687	85.0934	2.82	0.06	10.00	-20.00	7.326	5.09495	7.14867	2.0
7.0887	85.0934	2.82	0.06	10.00	-20.00	7.326	5.09246	7.15045	0.0
7.1087	85.0934	2.82	0.06	10.00	-20.00	7.326	5.08996	7.15222	2.0
7.1287	85.0934	2.82	0.06	10.00	-20.00	7.326	5.08747	7.15400	0.0
7.1487	85.0934	2.82	0.06	10.00	-20.00	7.326	5.08497	7.15577	0.0
7.1687	85.0934	2.82	0.06	10.00	-20.00	7.326	5.08247	7.15755	2.0
7.1887	85.0934	2.82	0.06	10.00	-20.00	7.326	5.07997	7.15932	0.0
7.2087	85.0934	2.82	0.06	10.00	-20.00	7.326	5.07747	7.16110	4.0
7.2287	85.0934	2.82	0.06	10.00	-20.00	7.326	5.07497	7.16287	4.0
7.2487	85.0934	2.82	0.06	10.00	-20.00	7.326	5.07247	7.16464	2.0
7.2687	85.0934	2.82	0.06	10.00	-20.00	7.326	5.06997	7.16641	2.0
7.2887	85.0934	2.82	0.06	10.00	-20.00	7.326	5.06747	7.16818	0.0
7.3087	85.0934	2.82	0.06	10.00	-20.00	7.326	5.06497	7.16995	4.0
7.3287	85.0934	2.82	0.06	10.00	-20.00	7.326	5.06246	7.17171	6.0
7.3487	85.0934	2.82	0.06	10.00	-20.00	7.326	5.05996	7.17348	2.0
7.3687	85.0934	2.82	0.06	10.00	-20.00	7.326	5.05745	7.17525	2.0
7.3887	85.0934	2.82	0.06	10.00	-20.00	7.326	5.05495	7.17701	2.0
7.4087	85.0934	2.82	0.06	10.00	-20.00	7.326	5.05244	7.17878	6.0
7.4287	85.0934	2.82	0.06	10.00	-20.00	7.326	5.04994	7.18054	2.0
7.4487	85.0934	2.82	0.06	10.00	-20.00	7.326	5.04743	7.18230	0.0
7.4687	85.0934	2.82	0.06	10.00	-20.00	7.326	5.04492	7.18406	2.0
7.4887	85.0934	2.82	0.06	10.00	-20.00	7.326	5.04242	7.18582	2.0
7.5087	85.0934	2.82	0.06	10.00	-20.00	7.326	5.03991	7.18758	2.0
7.5287	85.0934	2.82	0.06	10.00	-20.00	7.326	5.03740	7.18934	0.0
7.5487	85.0934	2.82	0.06	10.00	-20.00	7.326	5.03489	7.19110	0.0
7.5687	85.0934	2.82	0.06	10.00	-20.00	7.326	5.03238	7.19286	4.0
7.5887	85.0934	2.82	0.06	10.00	-20.00	7.326	5.02987	7.19461	0.0
7.6087	85.0934	2.82	0.06	10.00	-20.00	7.326	5.02735	7.19637	0.0
7.6287	85.0934	2.82	0.06	10.00	-20.00	7.326	5.02484	7.19812	2.0
7.6487	85.0934	2.82	0.06	10.00	-20.00	7.326	5.02233	7.19988	0.0
7.6687	85.0934	2.82	0.06	10.00	-20.00	7.326	5.01982	7.20163	0.0
7.6887	85.0934	2.82	0.06	10.00	-20.00	7.326	5.01730	7.20338	2.0
7.7087	85.0934	2.82	0.06	10.00	-20.00	7.326	5.01479	7.20513	8.0
7.7287	85.0934	2.82	0.06	10.00	-20.00	7.326	5.01227	7.20688	0.0
7.7487	85.0934	2.82	0.06	10.00	-20.00	7.326	5.00976	7.20863	0.0
7.7687	85.0934	2.82	0.06	10.00	-20.00	7.326	5.00724	7.21038	0.0
7.7887	85.0934	2.82	0.06	10.00	-20.00	7.326	5.00472	7.21213	0.0
7.8087	85.0934	2.82	0.06	10.00	-20.00	7.326	5.00220	7.21387	2.0
7.8287	85.0934	2.82	0.06	10.00	-20.00	7.326	4.99969	7.21562	0.0
7.8487	85.0934	2.82	0.06	10.00	-20.00	7.326	4.99717	7.21736	0.0
7.8687	85.0934	2.82	0.06	10.00	-20.00	7.326	4.99465	7.21911	0.0
7.8887	85.0934	2.82	0.06	10.00	-20.00	7.326	4.99213	7.22085	4.0
7.9087	85.0934	2.82	0.06	10.00	-20.00	7.326	4.98961	7.22259	0.0
7.9287	85.0934	2.82	0.06	10.00	-20.00	7.326	4.98708	7.22433	6.0
7.9487	85.0934	2.82	0.06	10.00	-20.00	7.326	4.98456	7.22607	2.0
7.9687	85.0934	2.82	0.06	10.00	-20.00	7.326	4.98204	7.22781	0.0
7.9887	85.0934	2.82	0.06	10.00	-20.00	7.326	4.97952	7.22955	0.0
8.0087	85.0934	2.82	0.06	10.00	-20.00	7.326	4.97699	7.23129	2.0
8.0287	85.0934	2.82	0.06	10.00	-20.00	7.326	4.97447	7.23303	2.0
8.0487	85.0934	2.82	0.06	10.00	-20.00	7.326	4.97194	7.23476	2.0
8.0687	85.0934	2.82	0.06	10.00	-20.00	7.326	4.96942	7.23650	0.0
8.0887	85.0934	2.82	0.06	10.00	-20.00	7.326	4.96689	7.23823	2.0

6.0987	85.1134	2.82	0.06	10.00	-20.00	7.326	5.21747	7.06182	2.0
6.1187	85.1134	2.82	0.06	10.00	-20.00	7.326	5.21500	7.06364	0.0
6.1387	85.1134	2.82	0.06	10.00	-20.00	7.326	5.21254	7.06546	2.0
6.1587	85.1134	2.82	0.06	10.00	-20.00	7.326	5.21007	7.06728	0.0
6.1787	85.1134	2.82	0.06	10.00	-20.00	7.326	5.20760	7.06910	0.0
6.1987	85.1134	2.82	0.06	10.00	-20.00	7.326	5.20513	7.07092	2.0
6.2187	85.1134	2.82	0.06	10.00	-20.00	7.326	5.20267	7.07273	4.0
6.2387	85.1134	2.82	0.06	10.00	-20.00	7.326	5.20020	7.07455	4.0
6.2587	85.1134	2.82	0.06	10.00	-20.00	7.326	5.19773	7.07637	2.0
6.2787	85.1134	2.82	0.06	10.00	-20.00	7.326	5.19526	7.07818	2.0
6.2987	85.1134	2.82	0.06	10.00	-20.00	7.326	5.19279	7.07999	4.0
6.3187	85.1134	2.82	0.06	10.00	-20.00	7.326	5.19031	7.08180	2.0
6.3387	85.1134	2.82	0.06	10.00	-20.00	7.326	5.18784	7.08362	0.0
6.3587	85.1134	2.82	0.06	10.00	-20.00	7.326	5.18537	7.08543	0.0
6.3787	85.1134	2.82	0.06	10.00	-20.00	7.326	5.18289	7.08724	0.0
6.3987	85.1134	2.82	0.06	10.00	-20.00	7.326	5.18042	7.08904	0.0
6.4187	85.1134	2.82	0.06	10.00	-20.00	7.326	5.17795	7.09085	4.0
6.4387	85.1134	2.82	0.06	10.00	-20.00	7.326	5.17547	7.09266	0.0
6.4587	85.1134	2.82	0.06	10.00	-20.00	7.326	5.17299	7.09447	4.0
6.4787	85.1134	2.82	0.06	10.00	-20.00	7.326	5.17052	7.09627	4.0
6.4987	85.1134	2.82	0.06	10.00	-20.00	7.326	5.16804	7.09808	2.0
6.5187	85.1134	2.82	0.06	10.00	-20.00	7.326	5.16556	7.09988	0.0
6.5387	85.1134	2.82	0.06	10.00	-20.00	7.326	5.16308	7.10168	4.0
6.5587	85.1134	2.82	0.06	10.00	-20.00	7.326	5.16060	7.10348	0.0
6.5787	85.1134	2.82	0.06	10.00	-20.00	7.326	5.15812	7.10528	0.0
6.5987	85.1134	2.82	0.06	10.00	-20.00	7.326	5.15564	7.10708	2.0
6.6187	85.1134	2.82	0.06	10.00	-20.00	7.326	5.15316	7.10888	2.0
6.6387	85.1134	2.82	0.06	10.00	-20.00	7.326	5.15068	7.11068	2.0
6.6587	85.1134	2.82	0.06	10.00	-20.00	7.326	5.14820	7.11248	2.0
6.6787	85.1134	2.82	0.06	10.00	-20.00	7.326	5.14572	7.11428	2.0
6.6987	85.1134	2.82	0.06	10.00	-20.00	7.326	5.14323	7.11607	6.0
6.7187	85.1134	2.82	0.06	10.00	-20.00	7.326	5.14075	7.11787	0.0
6.7387	85.1134	2.82	0.06	10.00	-20.00	7.326	5.13826	7.11966	0.0
6.7587	85.1134	2.82	0.06	10.00	-20.00	7.326	5.13578	7.12145	4.0
6.7787	85.1134	2.82	0.06	10.00	-20.00	7.326	5.13329	7.12325	0.0
6.7987	85.1134	2.82	0.06	10.00	-20.00	7.326	5.13080	7.12504	0.0
6.8187	85.1134	2.82	0.06	10.00	-20.00	7.326	5.12832	7.12683	0.0
6.8387	85.1134	2.82	0.06	10.00	-20.00	7.326	5.12583	7.12862	2.0
6.8587	85.1134	2.82	0.06	10.00	-20.00	7.326	5.12334	7.13041	2.0
6.8787	85.1134	2.82	0.06	10.00	-20.00	7.326	5.12085	7.13219	2.0
6.8987	85.1134	2.82	0.06	10.00	-20.00	7.326	5.11836	7.13398	0.0
6.9187	85.1134	2.82	0.06	10.00	-20.00	7.326	5.11587	7.13577	0.0
6.9387	85.1134	2.82	0.06	10.00	-20.00	7.326	5.11338	7.13755	0.0
6.9587	85.1134	2.82	0.06	10.00	-20.00	7.326	5.11089	7.13934	0.0
6.9787	85.1134	2.82	0.06	10.00	-20.00	7.326	5.10839	7.14112	0.0
6.9987	85.1134	2.82	0.06	10.00	-20.00	7.326	5.10590	7.14290	0.0
7.0187	85.1134	2.82	0.06	10.00	-20.00	7.326	5.10341	7.14469	2.0
7.0387	85.1134	2.82	0.06	10.00	-20.00	7.326	5.10091	7.14647	0.0
7.0587	85.1134	2.82	0.06	10.00	-20.00	7.326	5.09842	7.14825	0.0
7.0787	85.1134	2.82	0.06	10.00	-20.00	7.326	5.09592	7.15003	2.0
7.0987	85.1134	2.82	0.06	10.00	-20.00	7.326	5.09343	7.15180	0.0
7.1187	85.1134	2.82	0.06	10.00	-20.00	7.326	5.09093	7.15358	0.0
7.1387	85.1134	2.82	0.06	10.00	-20.00	7.326	5.08843	7.15536	2.0
7.1587	85.1134	2.82	0.06	10.00	-20.00	7.326	5.08593	7.15713	0.0
7.1787	85.1134	2.82	0.06	10.00	-20.00	7.326	5.08344	7.15891	0.0
7.1987	85.1134	2.82	0.06	10.00	-20.00	7.326	5.08094	7.16068	2.0
7.2187	85.1134	2.82	0.06	10.00	-20.00	7.326	5.07844	7.16246	6.0
7.2387	85.1134	2.82	0.06	10.00	-20.00	7.326	5.07594	7.16423	4.0
7.2587	85.1134	2.82	0.06	10.00	-20.00	7.326	5.07344	7.16600	0.0
7.2787	85.1134	2.82	0.06	10.00	-20.00	7.326	5.07093	7.16777	0.0
7.2987	85.1134	2.82	0.06	10.00	-20.00	7.326	5.06843	7.16954	0.0
7.3187	85.1134	2.82	0.06	10.00	-20.00	7.326	5.06593	7.17131	2.0
7.3387	85.1134	2.82	0.06	10.00	-20.00	7.326	5.06343	7.17308	0.0
7.3587	85.1134	2.82	0.06	10.00	-20.00	7.326	5.06092	7.17484	0.0
[...]
9.3887	89.0134	2.82	0.06	10.00	-20.00	7.326	5.23516	7.44391	2.0
9.4087	89.0134	2.82	0.06	10.00	-20.00	7.326	5.23256	7.44574	0.0
9.4287	89.0134	2.82	0.06	10.00	-20.00	7.326	5.22996	7.44756	0.0
9.4487	89.0134	2.82	0.06	10.00	-20.00	7.326	5.22736	7.44939	2.0
9.4687	89.0134	2.82	0.06	10.00	-20.00	7.326	5.22476	7.45121	2.0
9.4887	89.0134	2.82	0.06	10.00	-20.00	7.326	5.22216	7.45304	6.0
9.5087	89.0134	2.82	0.06	10.00	-20.00	7.326	5.21956	7.45486	4.0
9.5287	89.0134	2.82	0.06	10.00	-20.00	7.326	5.21696	7.45668	0.0
9.5487	89.0134	2.82	0.06	10.00	-20.00	7.326	5.21435	7.45850	2.0
9.5687	89.0134	2.82	0.06	10.00	-20.00	7.326	5.21175	7.46032	4.0
9.5887	89.0134	2.82	0.06	10.00	-20.00	7.326	5.20915	7.46214	0.0
9.6087	89.0134	2.82	0.06	10.00	-20.00	7.326	5.20654	7.46396	2.0
9.6287	89.0134	2.82	0.06	10.00	-20.00	7.326	5.20394	7.46577	2.0
9.6487	89.0134	2.82	0.06	10.00	-20.00	7.326	5.20133	7.46759	4.0
9.6687	89.0134	2.82	0.06	10.00	-20.00	7.326	5.19872	7.46941	0.0
9.6887	89.0134	2.82	0.06	10.00	-20.00	7.326	5.19611	7.47122	0.0
9.7087	89.0134	2.82	0.06	10.00	-20.00	7.326	5.19351	7.47303	4.0
9.7287	89.0134	2.82	0.06	10.00	-20.00	7.326	5.19090	7.47485	2.0
9.7487	89.0134	2.82	0.06	10.00	-20.00	7.326	5.18829	7.47666	0.0
9.7687	89.0134	2.82	0.06	10.00	-20.00	7.326	5.18568	7.47847	0.0
9.7887	89.0134	2.82	0.06	10.00	-20.00	7.326	5.18307	7.48028	0.0
9.8087	89.0134	2.82	0.06	10.00	-20.00	7.326	5.18046	7.48209	2.0
9.8287	89.0134	2.82	0.06	10.00	-20.00	7.326	5.17784	7.48389	2.0
9.8487	89.0134	2.82	0.06	10.00	-20.00	7.326	5.17523	7.48570	2.0
9.8687	89.0134	2.82	0.06	10.00	-20.00	7.326	5.17262	7.48751	6.0
9.8887	89.0134	2.82	0.06	10.00	-20.00	7.326	5.17000	7.48931	0.0
9.9087	89.0134	2.82	0.06	10.00	-20.00	7.326	5.16739	7.49112	2.0
9.9287	89.0134	2.82	0.06	10.00	-20.00	7.326	5.16477	7.49292	0.0
9.9487	89.0134	2.82	0.06	10.00	-20.00	7.326	5.16216	7.49472	4.0
9.9687	89.0134	2.82	0.06	10.00	-20.00	7.326	5.15954	7.49652	4.0
9.9887	89.0134	2.82	0.06	10.00	-20.00	7.326	5.15692	7.49832	0.0
10.0087	89.0134	2.82	0.06	10.00	-20.00	7.326	5.15431	7.50012	4.0
10.0287	89.0134	2.82	0.06	10.00	-20.00	7.326	5.15169	7.50192	2.0
10.0487	89.0134	2.82	0.06	10.00	-20.00	7.326	5.14907	7.50372	2.0

8.0587	89.0334	2.82	0.06	10.00	-20.00	7.326	5.40877	7.32075	0.0
8.0787	89.0334	2.82	0.06	10.00	-20.00	7.326	5.40621	7.32264	0.0
8.0987	89.0334	2.82	0.06	10.00	-20.00	7.326	5.40366	7.32452	0.0
8.1187	89.0334	2.82	0.06	10.00	-20.00	7.326	5.40110	7.32641	0.0
8.1387	89.0334	2.82	0.06	10.00	-20.00	7.326	5.39854	7.32829	0.0
8.1587	89.0334	2.82	0.06	10.00	-20.00	7.326	5.39598	7.33018	2.0
8.1787	89.0334	2.82	0.06	10.00	-20.00	7.326	5.39342	7.33206	2.0
8.1987	89.0334	2.82	0.06	10.00	-20.00	7.326	5.39086	7.33394	4.0
8.2187	89.0334	2.82	0.06	10.00	-20.00	7.326	5.38830	7.33582	2.0
8.2387	89.0334	2.82	0.06	10.00	-20.00	7.326	5.38574	7.33770	2.0
8.2587	89.0334	2.82	0.06	10.00	-20.00	7.326	5.38318	7.33958	2.0
8.2787	89.0334	2.82	0.06	10.00	-20.00	7.326	5.38062	7.34146	0.0
8.2987	89.0334	2.82	0.06	10.00	-20.00	7.326	5.37806	7.34334	0.0
8.3187	89.0334	2.82	0.06	10.00	-20.00	7.326	5.37549	7.34522	0.0
8.3387	89.0334	2.82	0.06	10.00	-20.00	7.326	5.37293	7.34709	4.0
8.3587	89.0334	2.82	0.06	10.00	-20.00	7.326	5.37036	7.34897	0.0
8.3787	89.0334	2.82	0.06	10.00	-20.00	7.326	5.36780	7.35084	0.0
8.3987	89.0334	2.82	0.06	10.00	-20.00	7.326	5.36523	7.35272	2.0
8.4187	89.0334	2.82	0.06	10.00	-20.00	7.326	5.36266	7.35459	0.0
8.4387	89.0334	2.82	0.06	10.00	-20.00	7.326	5.36010	7.35646	2.0
8.4587	89.0334	2.82	0.06	10.00	-20.00	7.326	5.35753	7.35833	0.0
8.4787	89.0334	2.82	0.06	10.00	-20.00	7.326	5.35496	7.36020	2.0
8.4987	89.0334	2.82	0.06	10.00	-20.00	7.326	5.35239	7.36207	0.0
8.5187	89.0334	2.82	0.06	10.00	-20.00	7.326	5.34982	7.36394	2.0
8.5387	89.0334	2.82	0.06	10.00	-20.00	7.326	5.34725	7.36580	0.0
8.5587	89.0334	2.82	0.06	10.00	-20.00	7.326	5.34468	7.36767	2.0
8.5787	89.0334	2.82	0.06	10.00	-20.00	7.326	5.34211	7.36954	4.0
8.5987	89.0334	2.82	0.06	10.00	-20.00	7.326	5.33953	7.37140	0.0
8.6187	89.0334	2.82	0.06	10.00	-20.00	7.326	5.33696	7.37326	0.0
8.6387	89.0334	2.82	0.06	10.00	-20.00	7.326	5.33439	7.37513	0.0
8.6587	89.0334	2.82	0.06	10.00	-20.00	7.326	5.33181	7.37699	4.0
8.6787	89.0334	2.82	0.06	10.00	-20.00	7.326	5.32924	7.37885	0.0
8.6987	89.0334	2.82	0.06	10.00	-20.00	7.326	5.32666	7.38071	4.0
8.7187	89.0334	2.82	0.06	10.00	-20.00	7.326	5.32408	7.38257	2.0
8.7387	89.0334	2.82	0.06	10.00	-20.00	7.326	5.32151	7.38442	2.0
8.7587	89.0334	2.82	0.06	10.00	-20.00	7.326	5.31893	7.38628	2.0
8.7787	89.0334	2.82	0.06	10.00	-20.00	7.326	5.31635	7.38814	0.0
8.7987	89.0334	2.82	0.06	10.00	-20.00	7.326	5.31377	7.38999	2.0
8.8187	89.0334	2.82	0.06	10.00	-20.00	7.326	5.31119	7.39185	0.0
8.8387	89.0334	2.82	0.06	10.00	-20.00	7.326	5.30861	7.39370	0.0
8.8587	89.0334	2.82	0.06	10.00	-20.00	7.326	5.30603	7.39555	0.0
8.8787	89.0334	2.82	0.06	10.00	-20.00	7.326	5.30345	7.39741	6.0
8.8987	89.0334	2.82	0.06	10.00	-20.00	7.326	5.30086	7.39926	2.0
8.9187	89.0334	2.82	0.06	10.00	-20.00	7.326	5.29828	7.40111	2.0
8.9387	89.0334	2.82	0.06	10.00	-20.00	7.326	5.29570	7.40295	0.0
8.9587	89.0334	2.82	0.06	10.00	-20.00	7.326	5.29311	7.40480	2.0
8.9787	89.0334	2.82	0.06	10.00	-20.00	7.326	5.29053	7.40665	0.0
8.9987	89.0334	2.82	0.06	10.00	-20.00	7.326	5.28794	7.40850	0.0
9.0187	89.0334	2.82	0.06	10.00	-20.00	7.326	5.28536	7.41034	0.0
9.0387	89.0334	2.82	0.06	10.00	-20.00	7.326	5.28277	7.41219	0.0
9.0587	89.0334	2.82	0.06	10.00	-20.00	7.326	5.28018	7.41403	2.0
9.0787	89.0334	2.82	0.06	10.00	-20.00	7.326	5.27759	7.41587	0.0
9.0987	89.0334	2.82	0.06	10.00	-20.00	7.326	5.27500	7.41771	2.0
9.1187	89.0334	2.82	0.06	10.00	-20.00	7.326	5.27241	7.41956	0.0
9.1387	89.0334	2.82	0.06	10.00	-20.00	7.326	5.26982	7.42140	2.0
9.1587	89.0334	2.82	0.06	10.00	-20.00	7.326	5.26723	7.42323	2.0
9.1787	89.0334	2.82	0.06	10.00	-20.00	7.326	5.26464	7.42507	2.0
9.1987	89.0334	2.82	0.06	10.00	-20.00	7.326	5.26205	7.42691	4.0
9.2187	89.0334	2.82	0.06	10.00	-20.00	7.326	5.25946	7.42875	0.0
9.2387	89.0334	2.82	0.06	10.00	-20.00	7.326	5.25686	7.43058	0.0
9.2587	89.0334	2.82	0.06	10.00	-20.00	7.326	5.25427	7.43242	4.0
9.2787	89.0334	2.82	0.06	10.00	-20.00	7.326	5.25167	7.43425	0.0
9.2987	89.0334	2.82	0.06	10.00	-20.00	7.326	5.24908	7.43608	0.0
9.3187	89.0334	2.82	0.06	10.00	-20.00	7.326	5.24648	7.43791	0.0
9.3387	89.0334	2.82	0.06	10.00	-20.00	7.326	5.24389	7.43974	4.0
9.3587	89.0334	2.82	0.06	10.00	-20.00	7.326	5.24129	7.44158	2.0
9.3787	89.0334	2.82	0.06	10.00	-20.00	7.326	5.23869	7.44340	4.0
9.3987	89.0334	2.82	0.06	10.00	-20.00	7.326	5.23609	7.44523	6.0
9.4187	89.0334	2.82	0.06	10.00	-20.00	7.326	5.23349	7.44706	0.0
9.4387	89.0334	2.82	0.06	10.00	-20.00	7.326	5.23089	7.44889	0.0
9.4587	89.0334	2.82	0.06	10.00	-20.00	7.326	5.22829	7.45071	4.0
9.4787	89.0334	2.82	0.06	10.00	-20.00	7.326	5.22569	7.45254	2.0
9.4987	89.0334	2.82	0.06	10.00	-20.00	7.326	5.22309	7.45436	2.0
9.5187	89.0334	2.82	0.06	10.00	-20.00	7.326	5.22049	7.45618	0.0
9.5387	89.0334	2.82	0.06	10.00	-20.00	7.326	5.21788	7.45800	2.0
9.5587	89.0334	2.82	0.06	10.00	-20.00	7.326	5.21528	7.45983	0.0
9.5787	89.0334	2.82	0.06	10.00	-20.00	7.326	5.21268	7.46165	0.0
9.5987	89.0334	2.82	0.06	10.00	-20.00	7.326	5.21007	7.46346	0.0
9.6187	89.0334	2.82	0.06	10.00	-20.00	7.326	5.20747	7.46528	0.0
9.6387	89.0334	2.82	0.06	10.00	-20.00	7.326	5.20486	7.46710	4.0
9.6587	89.0334	2.82	0.06	10.00	-20.00	7.326	5.20225	7.46892	0.0
9.6787	89.0334	2.82	0.06	10.00	-20.00	7.326	5.19965	7.47073	2.0
9.6987	89.0334	2.82	0.06	10.00	-20.00	7.326	5.19704	7.47255	4.0
9.7187	89.0334	2.82	0.06	10.00	-20.00	7.326	5.19443	7.47436	0.0
9.7387	89.0334	2.82	0.06	10.00	-20.00	7.326	5.19182	7.47617	0.0
9.7587	89.0334	2.82	0.06	10.00	-20.00	7.326	5.18921	7.47798	0.0
9.7787	89.0334	2.82	0.06	10.00	-20.00	7.326	5.18660	7.47980	0.0
9.7987	89.0334	2.82	0.06	10.00	-20.00	7.326	5.18399	7.48161	4.0
9.8187	89.0334	2.82	0.06	10.00	-20.00	7.326	5.18138	7.48341	4.0
9.8387	89.0334	2.82	0.06	10.00	-20.00	7.326	5.17876	7.48522	0.0
9.8587	89.0334	2.82	0.06	10.00	-20.00	7.326	5.17615	7.48703	2.0
9.8787	89.0334	2.82	0.06	10.00	-20.00	7.326	5.17354	7.48884	2.0
9.8987	89.0334	2.82	0.06	10.00	-20.00	7.326	5.17092	7.49064	0.0
9.9187	89.0334	2.82	0.06	10.00	-20.00	7.326	5.16831	7.49245	2.0
9.9387	89.0334	2.82	0.06	10.00	-20.00	7.326	5.16569	7.49425	2.0
9.9587	89.0334	2.82	0.06	10.00	-20.00	7.326	5.16307	7.49605	2.0
9.9787	89.0334	2.82	0.06	10.00	-20.00	7.326	5.16046	7.49785	0.0
9.9987	89.0334	2.82	0.06	10.00	-20.00	7.326	5.15784	7.49966	2.0
10.0187	89.0334	2.82	0.06	10.00	-20.00	7.326	5.15522	7.50146	2.0
10.0387	89.0334	2.82	0.06	10.00	-20.00	7.326	5.15260	7.50325	4.0
10.0587	89.0334	2.82	0.06	10.00	-20.00	7.326	5.14998	7.50505	0.0