File: Data/Omega/2.0deg-2.0deg-rsm-3h10mins_11371-as-grown_224_w-scans.dat
# filename: 2.0deg-2.0deg-rsm-3h10mins_11371-as-grown_224.dat
# reflection: (004)
# type: rotated into a series of omega scans
# x-axis: Omega_2Theta
#
# Omega	2Theta	Phi  	Chi   	X    	Y    	Z    	q_para	q_perp	Intensity
# [deg]	[deg] 	[deg]	[deg] 	[mm] 	[mm] 	[mm] 	[nm-1]	[nm-1]	[counts/s]
6.3979	85.0636	0.79	0.07	5.00	5.00	7.412	5.17499	7.08787	0.0
6.4179	85.0636	0.79	0.07	5.00	5.00	7.412	5.17251	7.08967	0.0
6.4379	85.0636	0.79	0.07	5.00	5.00	7.412	5.17004	7.09148	0.0
6.4579	85.0636	0.79	0.07	5.00	5.00	7.412	5.16756	7.09328	0.0
6.4779	85.0636	0.79	0.07	5.00	5.00	7.412	5.16509	7.09508	0.0
6.4979	85.0636	0.79	0.07	5.00	5.00	7.412	5.16261	7.09689	0.0
6.5179	85.0636	0.79	0.07	5.00	5.00	7.412	5.16013	7.09869	0.0
6.5379	85.0636	0.79	0.07	5.00	5.00	7.412	5.15765	7.10049	2.0
6.5579	85.0636	0.79	0.07	5.00	5.00	7.412	5.15517	7.10229	0.0
6.5779	85.0636	0.79	0.07	5.00	5.00	7.412	5.15269	7.10409	0.0
6.5979	85.0636	0.79	0.07	5.00	5.00	7.412	5.15021	7.10589	0.0
6.6179	85.0636	0.79	0.07	5.00	5.00	7.412	5.14773	7.10768	4.0
6.6379	85.0636	0.79	0.07	5.00	5.00	7.412	5.14525	7.10948	2.0
6.6579	85.0636	0.79	0.07	5.00	5.00	7.412	5.14277	7.11128	2.0
6.6779	85.0636	0.79	0.07	5.00	5.00	7.412	5.14029	7.11307	0.0
6.6979	85.0636	0.79	0.07	5.00	5.00	7.412	5.13780	7.11486	0.0
6.7179	85.0636	0.79	0.07	5.00	5.00	7.412	5.13532	7.11666	0.0
6.7379	85.0636	0.79	0.07	5.00	5.00	7.412	5.13284	7.11845	0.0
6.7579	85.0636	0.79	0.07	5.00	5.00	7.412	5.13035	7.12024	2.0
6.7779	85.0636	0.79	0.07	5.00	5.00	7.412	5.12787	7.12203	0.0
6.7979	85.0636	0.79	0.07	5.00	5.00	7.412	5.12538	7.12382	0.0
6.8179	85.0636	0.79	0.07	5.00	5.00	7.412	5.12289	7.12561	6.0
6.8379	85.0636	0.79	0.07	5.00	5.00	7.412	5.12040	7.12740	0.0
6.8579	85.0636	0.79	0.07	5.00	5.00	7.412	5.11792	7.12918	0.0
6.8779	85.0636	0.79	0.07	5.00	5.00	7.412	5.11543	7.13097	0.0
6.8979	85.0636	0.79	0.07	5.00	5.00	7.412	5.11294	7.13276	2.0
6.9179	85.0636	0.79	0.07	5.00	5.00	7.412	5.11045	7.13454	2.0
6.9379	85.0636	0.79	0.07	5.00	5.00	7.412	5.10796	7.13632	0.0
6.9579	85.0636	0.79	0.07	5.00	5.00	7.412	5.10547	7.13811	0.0
6.9779	85.0636	0.79	0.07	5.00	5.00	7.412	5.10297	7.13989	2.0
6.9979	85.0636	0.79	0.07	5.00	5.00	7.412	5.10048	7.14167	0.0
7.0179	85.0636	0.79	0.07	5.00	5.00	7.412	5.09799	7.14345	0.0
7.0379	85.0636	0.79	0.07	5.00	5.00	7.412	5.09549	7.14523	0.0
7.0579	85.0636	0.79	0.07	5.00	5.00	7.412	5.09300	7.14701	0.0
7.0779	85.0636	0.79	0.07	5.00	5.00	7.412	5.09050	7.14878	0.0
7.0979	85.0636	0.79	0.07	5.00	5.00	7.412	5.08801	7.15056	0.0
7.1179	85.0636	0.79	0.07	5.00	5.00	7.412	5.08551	7.15234	4.0
7.1379	85.0636	0.79	0.07	5.00	5.00	7.412	5.08302	7.15411	0.0
7.1579	85.0636	0.79	0.07	5.00	5.00	7.412	5.08052	7.15588	2.0
7.1779	85.0636	0.79	0.07	5.00	5.00	7.412	5.07802	7.15766	0.0
7.1979	85.0636	0.79	0.07	5.00	5.00	7.412	5.07552	7.15943	2.0
7.2179	85.0636	0.79	0.07	5.00	5.00	7.412	5.07302	7.16120	2.0
7.2379	85.0636	0.79	0.07	5.00	5.00	7.412	5.07052	7.16297	0.0
7.2579	85.0636	0.79	0.07	5.00	5.00	7.412	5.06802	7.16474	0.0
7.2779	85.0636	0.79	0.07	5.00	5.00	7.412	5.06552	7.16651	6.0
7.2979	85.0636	0.79	0.07	5.00	5.00	7.412	5.06302	7.16828	0.0
7.3179	85.0636	0.79	0.07	5.00	5.00	7.412	5.06051	7.17004	0.0
7.3379	85.0636	0.79	0.07	5.00	5.00	7.412	5.05801	7.17181	0.0
7.3579	85.0636	0.79	0.07	5.00	5.00	7.412	5.05551	7.17357	2.0
7.3779	85.0636	0.79	0.07	5.00	5.00	7.412	5.05300	7.17534	2.0
7.3979	85.0636	0.79	0.07	5.00	5.00	7.412	5.05050	7.17710	6.0
7.4179	85.0636	0.79	0.07	5.00	5.00	7.412	5.04799	7.17886	4.0
7.4379	85.0636	0.79	0.07	5.00	5.00	7.412	5.04549	7.18063	2.0
7.4579	85.0636	0.79	0.07	5.00	5.00	7.412	5.04298	7.18239	2.0
7.4779	85.0636	0.79	0.07	5.00	5.00	7.412	5.04047	7.18415	2.0
7.4979	85.0636	0.79	0.07	5.00	5.00	7.412	5.03796	7.18591	0.0
7.5179	85.0636	0.79	0.07	5.00	5.00	7.412	5.03546	7.18766	0.0
7.5379	85.0636	0.79	0.07	5.00	5.00	7.412	5.03295	7.18942	6.0
7.5579	85.0636	0.79	0.07	5.00	5.00	7.412	5.03044	7.19118	2.0
7.5779	85.0636	0.79	0.07	5.00	5.00	7.412	5.02793	7.19293	0.0
7.5979	85.0636	0.79	0.07	5.00	5.00	7.412	5.02542	7.19469	0.0
7.6179	85.0636	0.79	0.07	5.00	5.00	7.412	5.02290	7.19644	0.0
7.6379	85.0636	0.79	0.07	5.00	5.00	7.412	5.02039	7.19819	2.0
7.6579	85.0636	0.79	0.07	5.00	5.00	7.412	5.01788	7.19995	2.0
7.6779	85.0636	0.79	0.07	5.00	5.00	7.412	5.01536	7.20170	2.0
7.6979	85.0636	0.79	0.07	5.00	5.00	7.412	5.01285	7.20345	0.0
7.7179	85.0636	0.79	0.07	5.00	5.00	7.412	5.01034	7.20520	0.0
7.7379	85.0636	0.79	0.07	5.00	5.00	7.412	5.00782	7.20695	0.0
7.7579	85.0636	0.79	0.07	5.00	5.00	7.412	5.00530	7.20869	6.0
7.7779	85.0636	0.79	0.07	5.00	5.00	7.412	5.00279	7.21044	4.0
7.7979	85.0636	0.79	0.07	5.00	5.00	7.412	5.00027	7.21219	2.0
7.8179	85.0636	0.79	0.07	5.00	5.00	7.412	4.99775	7.21393	0.0
7.8379	85.0636	0.79	0.07	5.00	5.00	7.412	4.99523	7.21568	2.0
7.8579	85.0636	0.79	0.07	5.00	5.00	7.412	4.99272	7.21742	0.0
7.8779	85.0636	0.79	0.07	5.00	5.00	7.412	4.99020	7.21916	0.0
7.8979	85.0636	0.79	0.07	5.00	5.00	7.412	4.98768	7.22090	6.0
7.9179	85.0636	0.79	0.07	5.00	5.00	7.412	4.98515	7.22264	2.0
7.9379	85.0636	0.79	0.07	5.00	5.00	7.412	4.98263	7.22438	0.0
7.9579	85.0636	0.79	0.07	5.00	5.00	7.412	4.98011	7.22612	6.0
7.9779	85.0636	0.79	0.07	5.00	5.00	7.412	4.97759	7.22786	2.0
7.9979	85.0636	0.79	0.07	5.00	5.00	7.412	4.97506	7.22960	0.0
8.0179	85.0636	0.79	0.07	5.00	5.00	7.412	4.97254	7.23133	4.0
8.0379	85.0636	0.79	0.07	5.00	5.00	7.412	4.97002	7.23307	0.0
8.0579	85.0636	0.79	0.07	5.00	5.00	7.412	4.96749	7.23480	0.0
8.0779	85.0636	0.79	0.07	5.00	5.00	7.412	4.96497	7.23654	0.0
8.0979	85.0636	0.79	0.07	5.00	5.00	7.412	4.96244	7.23827	6.0
8.1179	85.0636	0.79	0.07	5.00	5.00	7.412	4.95991	7.24000	0.0
8.1379	85.0636	0.79	0.07	5.00	5.00	7.412	4.95738	7.24173	0.0
8.1579	85.0636	0.79	0.07	5.00	5.00	7.412	4.95486	7.24346	2.0
8.1779	85.0636	0.79	0.07	5.00	5.00	7.412	4.95233	7.24519	2.0
8.1979	85.0636	0.79	0.07	5.00	5.00	7.412	4.94980	7.24692	2.0
8.2179	85.0636	0.79	0.07	5.00	5.00	7.412	4.94727	7.24865	0.0
8.2379	85.0636	0.79	0.07	5.00	5.00	7.412	4.94474	7.25037	0.0
8.2579	85.0636	0.79	0.07	5.00	5.00	7.412	4.94221	7.25210	2.0
8.2779	85.0636	0.79	0.07	5.00	5.00	7.412	4.93967	7.25382	2.0
8.2979	85.0636	0.79	0.07	5.00	5.00	7.412	4.93714	7.25555	0.0
8.3179	85.0636	0.79	0.07	5.00	5.00	7.412	4.93461	7.25727	2.0
8.3379	85.0636	0.79	0.07	5.00	5.00	7.412	4.93208	7.25899	0.0
8.3579	85.0636	0.79	0.07	5.00	5.00	7.412	4.92954	7.26071	0.0
8.3779	85.0636	0.79	0.07	5.00	5.00	7.412	4.92701	7.26243	0.0
8.3979	85.0636	0.79	0.07	5.00	5.00	7.412	4.92447	7.26415	0.0

6.4079	85.0836	0.79	0.07	5.00	5.00	7.412	5.17597	7.08921	2.0
6.4279	85.0836	0.79	0.07	5.00	5.00	7.412	5.17350	7.09102	2.0
6.4479	85.0836	0.79	0.07	5.00	5.00	7.412	5.17102	7.09283	2.0
6.4679	85.0836	0.79	0.07	5.00	5.00	7.412	5.16854	7.09463	0.0
6.4879	85.0836	0.79	0.07	5.00	5.00	7.412	5.16607	7.09643	4.0
6.5079	85.0836	0.79	0.07	5.00	5.00	7.412	5.16359	7.09824	4.0
6.5279	85.0836	0.79	0.07	5.00	5.00	7.412	5.16111	7.10004	0.0
6.5479	85.0836	0.79	0.07	5.00	5.00	7.412	5.15863	7.10184	2.0
6.5679	85.0836	0.79	0.07	5.00	5.00	7.412	5.15615	7.10364	0.0
6.5879	85.0836	0.79	0.07	5.00	5.00	7.412	5.15367	7.10544	4.0
6.6079	85.0836	0.79	0.07	5.00	5.00	7.412	5.15119	7.10724	2.0
6.6279	85.0836	0.79	0.07	5.00	5.00	7.412	5.14871	7.10904	2.0
6.6479	85.0836	0.79	0.07	5.00	5.00	7.412	5.14623	7.11083	0.0
6.6679	85.0836	0.79	0.07	5.00	5.00	7.412	5.14375	7.11263	0.0
6.6879	85.0836	0.79	0.07	5.00	5.00	7.412	5.14127	7.11442	4.0
6.7079	85.0836	0.79	0.07	5.00	5.00	7.412	5.13878	7.11622	0.0
6.7279	85.0836	0.79	0.07	5.00	5.00	7.412	5.13630	7.11801	2.0
6.7479	85.0836	0.79	0.07	5.00	5.00	7.412	5.13381	7.11980	0.0
6.7679	85.0836	0.79	0.07	5.00	5.00	7.412	5.13133	7.12160	0.0
6.7879	85.0836	0.79	0.07	5.00	5.00	7.412	5.12884	7.12339	0.0
6.8079	85.0836	0.79	0.07	5.00	5.00	7.412	5.12635	7.12518	0.0
6.8279	85.0836	0.79	0.07	5.00	5.00	7.412	5.12387	7.12697	2.0
6.8479	85.0836	0.79	0.07	5.00	5.00	7.412	5.12138	7.12875	0.0
6.8679	85.0836	0.79	0.07	5.00	5.00	7.412	5.11889	7.13054	0.0
6.8879	85.0836	0.79	0.07	5.00	5.00	7.412	5.11640	7.13233	0.0
6.9079	85.0836	0.79	0.07	5.00	5.00	7.412	5.11391	7.13411	4.0
6.9279	85.0836	0.79	0.07	5.00	5.00	7.412	5.11142	7.13590	0.0
6.9479	85.0836	0.79	0.07	5.00	5.00	7.412	5.10893	7.13768	0.0
6.9679	85.0836	0.79	0.07	5.00	5.00	7.412	5.10644	7.13946	4.0
6.9879	85.0836	0.79	0.07	5.00	5.00	7.412	5.10394	7.14125	0.0
7.0079	85.0836	0.79	0.07	5.00	5.00	7.412	5.10145	7.14303	2.0
7.0279	85.0836	0.79	0.07	5.00	5.00	7.412	5.09896	7.14481	4.0
7.0479	85.0836	0.79	0.07	5.00	5.00	7.412	5.09646	7.14659	0.0
7.0679	85.0836	0.79	0.07	5.00	5.00	7.412	5.09397	7.14837	6.0
7.0879	85.0836	0.79	0.07	5.00	5.00	7.412	5.09147	7.15014	0.0
7.1079	85.0836	0.79	0.07	5.00	5.00	7.412	5.08898	7.15192	0.0
7.1279	85.0836	0.79	0.07	5.00	5.00	7.412	5.08648	7.15370	6.0
7.1479	85.0836	0.79	0.07	5.00	5.00	7.412	5.08398	7.15547	6.0
7.1679	85.0836	0.79	0.07	5.00	5.00	7.412	5.08148	7.15725	0.0
7.1879	85.0836	0.79	0.07	5.00	5.00	7.412	5.07899	7.15902	2.0
7.2079	85.0836	0.79	0.07	5.00	5.00	7.412	5.07649	7.16079	2.0
7.2279	85.0836	0.79	0.07	5.00	5.00	7.412	5.07399	7.16256	2.0
7.2479	85.0836	0.79	0.07	5.00	5.00	7.412	5.07149	7.16433	4.0
7.2679	85.0836	0.79	0.07	5.00	5.00	7.412	5.06898	7.16610	4.0
7.2879	85.0836	0.79	0.07	5.00	5.00	7.412	5.06648	7.16787	2.0
7.3079	85.0836	0.79	0.07	5.00	5.00	7.412	5.06398	7.16964	2.0
7.3279	85.0836	0.79	0.07	5.00	5.00	7.412	5.06148	7.17141	4.0
7.3479	85.0836	0.79	0.07	5.00	5.00	7.412	5.05897	7.17317	2.0
7.3679	85.0836	0.79	0.07	5.00	5.00	7.412	5.05647	7.17494	0.0
7.3879	85.0836	0.79	0.07	5.00	5.00	7.412	5.05396	7.17670	0.0
7.4079	85.0836	0.79	0.07	5.00	5.00	7.412	5.05146	7.17847	2.0
7.4279	85.0836	0.79	0.07	5.00	5.00	7.412	5.04895	7.18023	4.0
7.4479	85.0836	0.79	0.07	5.00	5.00	7.412	5.04645	7.18199	6.0
7.4679	85.0836	0.79	0.07	5.00	5.00	7.412	5.04394	7.18375	2.0
7.4879	85.0836	0.79	0.07	5.00	5.00	7.412	5.04143	7.18551	0.0
7.5079	85.0836	0.79	0.07	5.00	5.00	7.412	5.03892	7.18727	0.0
7.5279	85.0836	0.79	0.07	5.00	5.00	7.412	5.03641	7.18903	0.0
7.5479	85.0836	0.79	0.07	5.00	5.00	7.412	5.03390	7.19079	0.0
7.5679	85.0836	0.79	0.07	5.00	5.00	7.412	5.03139	7.19255	0.0
7.5879	85.0836	0.79	0.07	5.00	5.00	7.412	5.02888	7.19430	0.0
7.6079	85.0836	0.79	0.07	5.00	5.00	7.412	5.02637	7.19606	0.0
7.6279	85.0836	0.79	0.07	5.00	5.00	7.412	5.02386	7.19781	4.0
7.6479	85.0836	0.79	0.07	5.00	5.00	7.412	5.02135	7.19956	0.0
7.6679	85.0836	0.79	0.07	5.00	5.00	7.412	5.01883	7.20132	0.0
7.6879	85.0836	0.79	0.07	5.00	5.00	7.412	5.01632	7.20307	4.0
7.7079	85.0836	0.79	0.07	5.00	5.00	7.412	5.01380	7.20482	4.0
7.7279	85.0836	0.79	0.07	5.00	5.00	7.412	5.01129	7.20657	0.0
7.7479	85.0836	0.79	0.07	5.00	5.00	7.412	5.00877	7.20832	0.0
7.7679	85.0836	0.79	0.07	5.00	5.00	7.412	5.00626	7.21007	0.0
7.7879	85.0836	0.79	0.07	5.00	5.00	7.412	5.00374	7.21181	0.0
7.8079	85.0836	0.79	0.07	5.00	5.00	7.412	5.00122	7.21356	2.0
7.8279	85.0836	0.79	0.07	5.00	5.00	7.412	4.99870	7.21530	2.0
7.8479	85.0836	0.79	0.07	5.00	5.00	7.412	4.99618	7.21705	2.0
7.8679	85.0836	0.79	0.07	5.00	5.00	7.412	4.99366	7.21879	4.0
7.8879	85.0836	0.79	0.07	5.00	5.00	7.412	4.99114	7.22053	0.0
7.9079	85.0836	0.79	0.07	5.00	5.00	7.412	4.98862	7.22228	2.0
7.9279	85.0836	0.79	0.07	5.00	5.00	7.412	4.98610	7.22402	2.0
7.9479	85.0836	0.79	0.07	5.00	5.00	7.412	4.98358	7.22576	0.0
7.9679	85.0836	0.79	0.07	5.00	5.00	7.412	4.98106	7.22750	4.0
7.9879	85.0836	0.79	0.07	5.00	5.00	7.412	4.97853	7.22923	0.0
8.0079	85.0836	0.79	0.07	5.00	5.00	7.412	4.97601	7.23097	0.0
8.0279	85.0836	0.79	0.07	5.00	5.00	7.412	4.97349	7.23271	4.0
8.0479	85.0836	0.79	0.07	5.00	5.00	7.412	4.97096	7.23444	2.0
8.0679	85.0836	0.79	0.07	5.00	5.00	7.412	4.96844	7.23618	0.0
8.0879	85.0836	0.79	0.07	5.00	5.00	7.412	4.96591	7.23791	0.0
8.1079	85.0836	0.79	0.07	5.00	5.00	7.412	4.96338	7.23965	0.0
8.1279	85.0836	0.79	0.07	5.00	5.00	7.412	4.96086	7.24138	0.0
8.1479	85.0836	0.79	0.07	5.00	5.00	7.412	4.95833	7.24311	2.0
8.1679	85.0836	0.79	0.07	5.00	5.00	7.412	4.95580	7.24484	0.0
8.1879	85.0836	0.79	0.07	5.00	5.00	7.412	4.95327	7.24657	0.0
8.2079	85.0836	0.79	0.07	5.00	5.00	7.412	4.95074	7.24830	0.0
8.2279	85.0836	0.79	0.07	5.00	5.00	7.412	4.94821	7.25003	0.0
8.2479	85.0836	0.79	0.07	5.00	5.00	7.412	4.94568	7.25175	0.0
8.2679	85.0836	0.79	0.07	5.00	5.00	7.412	4.94315	7.25348	4.0
8.2879	85.0836	0.79	0.07	5.00	5.00	7.412	4.94061	7.25520	2.0
8.3079	85.0836	0.79	0.07	5.00	5.00	7.412	4.93808	7.25693	2.0
8.3279	85.0836	0.79	0.07	5.00	5.00	7.412	4.93555	7.25865	2.0
8.3479	85.0836	0.79	0.07	5.00	5.00	7.412	4.93301	7.26037	2.0
8.3679	85.0836	0.79	0.07	5.00	5.00	7.412	4.93048	7.26209	2.0
8.3879	85.0836	0.79	0.07	5.00	5.00	7.412	4.92794	7.26381	4.0
8.4079	85.0836	0.79	0.07	5.00	5.00	7.412	4.92541	7.26553	2.0

6.4179	85.1036	0.79	0.07	5.00	5.00	7.412	5.17696	7.09056	0.0
6.4379	85.1036	0.79	0.07	5.00	5.00	7.412	5.17448	7.09237	2.0
6.4579	85.1036	0.79	0.07	5.00	5.00	7.412	5.17200	7.09417	0.0
6.4779	85.1036	0.79	0.07	5.00	5.00	7.412	5.16953	7.09598	0.0
6.4979	85.1036	0.79	0.07	5.00	5.00	7.412	5.16705	7.09778	0.0
6.5179	85.1036	0.79	0.07	5.00	5.00	7.412	5.16457	7.09959	2.0
6.5379	85.1036	0.79	0.07	5.00	5.00	7.412	5.16209	7.10139	2.0
6.5579	85.1036	0.79	0.07	5.00	5.00	7.412	5.15962	7.10319	2.0
6.5779	85.1036	0.79	0.07	5.00	5.00	7.412	5.15714	7.10499	2.0
6.5979	85.1036	0.79	0.07	5.00	5.00	7.412	5.15465	7.10679	0.0
6.6179	85.1036	0.79	0.07	5.00	5.00	7.412	5.15217	7.10859	4.0
6.6379	85.1036	0.79	0.07	5.00	5.00	7.412	5.14969	7.11039	0.0
6.6579	85.1036	0.79	0.07	5.00	5.00	7.412	5.14721	7.11219	0.0
6.6779	85.1036	0.79	0.07	5.00	5.00	7.412	5.14473	7.11398	2.0
6.6979	85.1036	0.79	0.07	5.00	5.00	7.412	5.14224	7.11578	0.0
6.7179	85.1036	0.79	0.07	5.00	5.00	7.412	5.13976	7.11757	2.0
6.7379	85.1036	0.79	0.07	5.00	5.00	7.412	5.13727	7.11937	2.0
6.7579	85.1036	0.79	0.07	5.00	5.00	7.412	5.13479	7.12116	2.0
6.7779	85.1036	0.79	0.07	5.00	5.00	7.412	5.13230	7.12295	2.0
6.7979	85.1036	0.79	0.07	5.00	5.00	7.412	5.12982	7.12474	2.0
6.8179	85.1036	0.79	0.07	5.00	5.00	7.412	5.12733	7.12653	4.0
6.8379	85.1036	0.79	0.07	5.00	5.00	7.412	5.12484	7.12832	4.0
6.8579	85.1036	0.79	0.07	5.00	5.00	7.412	5.12235	7.13011	2.0
6.8779	85.1036	0.79	0.07	5.00	5.00	7.412	5.11986	7.13190	0.0
6.8979	85.1036	0.79	0.07	5.00	5.00	7.412	5.11737	7.13368	2.0
6.9179	85.1036	0.79	0.07	5.00	5.00	7.412	5.11488	7.13547	6.0
6.9379	85.1036	0.79	0.07	5.00	5.00	7.412	5.11239	7.13725	2.0
6.9579	85.1036	0.79	0.07	5.00	5.00	7.412	5.10990	7.13904	10.0
6.9779	85.1036	0.79	0.07	5.00	5.00	7.412	5.10741	7.14082	0.0
6.9979	85.1036	0.79	0.07	5.00	5.00	7.412	5.10491	7.14260	4.0
7.0179	85.1036	0.79	0.07	5.00	5.00	7.412	5.10242	7.14439	4.0
7.0379	85.1036	0.79	0.07	5.00	5.00	7.412	5.09993	7.14617	0.0
7.0579	85.1036	0.79	0.07	5.00	5.00	7.412	5.09743	7.14795	2.0
7.0779	85.1036	0.79	0.07	5.00	5.00	7.412	5.09494	7.14973	0.0
7.0979	85.1036	0.79	0.07	5.00	5.00	7.412	5.09244	7.15150	0.0
7.1179	85.1036	0.79	0.07	5.00	5.00	7.412	5.08994	7.15328	2.0
7.1379	85.1036	0.79	0.07	5.00	5.00	7.412	5.08745	7.15506	2.0
7.1579	85.1036	0.79	0.07	5.00	5.00	7.412	5.08495	7.15683	6.0
7.1779	85.1036	0.79	0.07	5.00	5.00	7.412	5.08245	7.15861	0.0
7.1979	85.1036	0.79	0.07	5.00	5.00	7.412	5.07995	7.16038	2.0
7.2179	85.1036	0.79	0.07	5.00	5.00	7.412	5.07745	7.16215	6.0
7.2379	85.1036	0.79	0.07	5.00	5.00	7.412	5.07495	7.16392	2.0
7.2579	85.1036	0.79	0.07	5.00	5.00	7.412	5.07245	7.16570	2.0
7.2779	85.1036	0.79	0.07	5.00	5.00	7.412	5.06995	7.16747	0.0
7.2979	85.1036	0.79	0.07	5.00	5.00	7.412	5.06745	7.16924	2.0
7.3179	85.1036	0.79	0.07	5.00	5.00	7.412	5.06494	7.17100	0.0
7.3379	85.1036	0.79	0.07	5.00	5.00	7.412	5.06244	7.17277	2.0
7.3579	85.1036	0.79	0.07	5.00	5.00	7.412	5.05994	7.17454	0.0
7.3779	85.1036	0.79	0.07	5.00	5.00	7.412	5.05743	7.17630	6.0
7.3979	85.1036	0.79	0.07	5.00	5.00	7.412	5.05493	7.17807	0.0
7.4179	85.1036	0.79	0.07	5.00	5.00	7.412	5.05242	7.17983	0.0
7.4379	85.1036	0.79	0.07	5.00	5.00	7.412	5.04991	7.18160	2.0
7.4579	85.1036	0.79	0.07	5.00	5.00	7.412	5.04741	7.18336	2.0
7.4779	85.1036	0.79	0.07	5.00	5.00	7.412	5.04490	7.18512	2.0
7.4979	85.1036	0.79	0.07	5.00	5.00	7.412	5.04239	7.18688	0.0
7.5179	85.1036	0.79	0.07	5.00	5.00	7.412	5.03988	7.18864	2.0
7.5379	85.1036	0.79	0.07	5.00	5.00	7.412	5.03737	7.19040	4.0
7.5579	85.1036	0.79	0.07	5.00	5.00	7.412	5.03486	7.19216	2.0
7.5779	85.1036	0.79	0.07	5.00	5.00	7.412	5.03235	7.19391	2.0
7.5979	85.1036	0.79	0.07	5.00	5.00	7.412	5.02984	7.19567	0.0
7.6179	85.1036	0.79	0.07	5.00	5.00	7.412	5.02733	7.19743	2.0
7.6379	85.1036	0.79	0.07	5.00	5.00	7.412	5.02481	7.19918	2.0
7.6579	85.1036	0.79	0.07	5.00	5.00	7.412	5.02230	7.20093	2.0
7.6779	85.1036	0.79	0.07	5.00	5.00	7.412	5.01979	7.20269	4.0
7.6979	85.1036	0.79	0.07	5.00	5.00	7.412	5.01727	7.20444	4.0
7.7179	85.1036	0.79	0.07	5.00	5.00	7.412	5.01476	7.20619	4.0
7.7379	85.1036	0.79	0.07	5.00	5.00	7.412	5.01224	7.20794	4.0
7.7579	85.1036	0.79	0.07	5.00	5.00	7.412	5.00973	7.20969	0.0
7.7779	85.1036	0.79	0.07	5.00	5.00	7.412	5.00721	7.21144	0.0
7.7979	85.1036	0.79	0.07	5.00	5.00	7.412	5.00469	7.21318	2.0
7.8179	85.1036	0.79	0.07	5.00	5.00	7.412	5.00217	7.21493	0.0
7.8379	85.1036	0.79	0.07	5.00	5.00	7.412	4.99965	7.21668	2.0
7.8579	85.1036	0.79	0.07	5.00	5.00	7.412	4.99713	7.21842	0.0
7.8779	85.1036	0.79	0.07	5.00	5.00	7.412	4.99461	7.22016	0.0
7.8979	85.1036	0.79	0.07	5.00	5.00	7.412	4.99209	7.22191	0.0
7.9179	85.1036	0.79	0.07	5.00	5.00	7.412	4.98957	7.22365	4.0
7.9379	85.1036	0.79	0.07	5.00	5.00	7.412	4.98705	7.22539	2.0
[...]
9.5879	89.0036	0.79	0.07	5.00	5.00	7.412	5.20816	7.46186	8.0
9.6079	89.0036	0.79	0.07	5.00	5.00	7.412	5.20555	7.46368	2.0
9.6279	89.0036	0.79	0.07	5.00	5.00	7.412	5.20295	7.46550	2.0
9.6479	89.0036	0.79	0.07	5.00	5.00	7.412	5.20034	7.46731	6.0
9.6679	89.0036	0.79	0.07	5.00	5.00	7.412	5.19774	7.46913	6.0
9.6879	89.0036	0.79	0.07	5.00	5.00	7.412	5.19513	7.47094	2.0
9.7079	89.0036	0.79	0.07	5.00	5.00	7.412	5.19252	7.47275	0.0
9.7279	89.0036	0.79	0.07	5.00	5.00	7.412	5.18991	7.47457	2.0
9.7479	89.0036	0.79	0.07	5.00	5.00	7.412	5.18730	7.47638	0.0
9.7679	89.0036	0.79	0.07	5.00	5.00	7.412	5.18469	7.47819	0.0
9.7879	89.0036	0.79	0.07	5.00	5.00	7.412	5.18208	7.48000	2.0
9.8079	89.0036	0.79	0.07	5.00	5.00	7.412	5.17947	7.48181	0.0
9.8279	89.0036	0.79	0.07	5.00	5.00	7.412	5.17686	7.48361	2.0
9.8479	89.0036	0.79	0.07	5.00	5.00	7.412	5.17424	7.48542	0.0
9.8679	89.0036	0.79	0.07	5.00	5.00	7.412	5.17163	7.48723	2.0
9.8879	89.0036	0.79	0.07	5.00	5.00	7.412	5.16902	7.48903	4.0
9.9079	89.0036	0.79	0.07	5.00	5.00	7.412	5.16640	7.49083	0.0
9.9279	89.0036	0.79	0.07	5.00	5.00	7.412	5.16379	7.49264	4.0
9.9479	89.0036	0.79	0.07	5.00	5.00	7.412	5.16117	7.49444	0.0
9.9679	89.0036	0.79	0.07	5.00	5.00	7.412	5.15856	7.49624	2.0
9.9879	89.0036	0.79	0.07	5.00	5.00	7.412	5.15594	7.49804	2.0
10.0079	89.0036	0.79	0.07	5.00	5.00	7.412	5.15332	7.49984	0.0
10.0279	89.0036	0.79	0.07	5.00	5.00	7.412	5.15070	7.50164	2.0
10.0479	89.0036	0.79	0.07	5.00	5.00	7.412	5.14808	7.50344	2.0
10.0679	89.0036	0.79	0.07	5.00	5.00	7.412	5.14546	7.50523	2.0
10.0879	89.0036	0.79	0.07	5.00	5.00	7.412	5.14284	7.50703	0.0
10.1079	89.0036	0.79	0.07	5.00	5.00	7.412	5.14022	7.50882	0.0
10.1279	89.0036	0.79	0.07	5.00	5.00	7.412	5.13760	7.51062	2.0
10.1479	89.0036	0.79	0.07	5.00	5.00	7.412	5.13498	7.51241	0.0
10.1679	89.0036	0.79	0.07	5.00	5.00	7.412	5.13236	7.51420	2.0
10.1879	89.0036	0.79	0.07	5.00	5.00	7.412	5.12973	7.51599	0.0
10.2079	89.0036	0.79	0.07	5.00	5.00	7.412	5.12711	7.51778	0.0
10.2279	89.0036	0.79	0.07	5.00	5.00	7.412	5.12449	7.51957	2.0
10.2479	89.0036	0.79	0.07	5.00	5.00	7.412	5.12186	7.52136	4.0
10.2679	89.0036	0.79	0.07	5.00	5.00	7.412	5.11924	7.52315	0.0
10.2879	89.0036	0.79	0.07	5.00	5.00	7.412	5.11661	7.52493	0.0
10.3079	89.0036	0.79	0.07	5.00	5.00	7.412	5.11398	7.52672	2.0
10.3279	89.0036	0.79	0.07	5.00	5.00	7.412	5.11135	7.52850	2.0
10.3479	89.0036	0.79	0.07	5.00	5.00	7.412	5.10873	7.53029	0.0
10.3679	89.0036	0.79	0.07	5.00	5.00	7.412	5.10610	7.53207	0.0

8.3779	89.0236	0.79	0.07	5.00	5.00	7.412	5.36681	7.35059	0.0
8.3979	89.0236	0.79	0.07	5.00	5.00	7.412	5.36424	7.35246	0.0
8.4179	89.0236	0.79	0.07	5.00	5.00	7.412	5.36167	7.35433	0.0
8.4379	89.0236	0.79	0.07	5.00	5.00	7.412	5.35910	7.35620	0.0
8.4579	89.0236	0.79	0.07	5.00	5.00	7.412	5.35654	7.35807	0.0
8.4779	89.0236	0.79	0.07	5.00	5.00	7.412	5.35397	7.35994	0.0
8.4979	89.0236	0.79	0.07	5.00	5.00	7.412	5.35140	7.36181	0.0
8.5179	89.0236	0.79	0.07	5.00	5.00	7.412	5.34883	7.36368	2.0
8.5379	89.0236	0.79	0.07	5.00	5.00	7.412	5.34626	7.36555	0.0
8.5579	89.0236	0.79	0.07	5.00	5.00	7.412	5.34369	7.36741	0.0
8.5779	89.0236	0.79	0.07	5.00	5.00	7.412	5.34111	7.36928	0.0
8.5979	89.0236	0.79	0.07	5.00	5.00	7.412	5.33854	7.37114	0.0
8.6179	89.0236	0.79	0.07	5.00	5.00	7.412	5.33597	7.37300	0.0
8.6379	89.0236	0.79	0.07	5.00	5.00	7.412	5.33339	7.37487	0.0
8.6579	89.0236	0.79	0.07	5.00	5.00	7.412	5.33082	7.37673	2.0
8.6779	89.0236	0.79	0.07	5.00	5.00	7.412	5.32824	7.37859	0.0
8.6979	89.0236	0.79	0.07	5.00	5.00	7.412	5.32567	7.38045	2.0
8.7179	89.0236	0.79	0.07	5.00	5.00	7.412	5.32309	7.38231	2.0
8.7379	89.0236	0.79	0.07	5.00	5.00	7.412	5.32051	7.38416	0.0
8.7579	89.0236	0.79	0.07	5.00	5.00	7.412	5.31794	7.38602	0.0
8.7779	89.0236	0.79	0.07	5.00	5.00	7.412	5.31536	7.38788	2.0
8.7979	89.0236	0.79	0.07	5.00	5.00	7.412	5.31278	7.38973	0.0
8.8179	89.0236	0.79	0.07	5.00	5.00	7.412	5.31020	7.39158	2.0
8.8379	89.0236	0.79	0.07	5.00	5.00	7.412	5.30762	7.39344	0.0
8.8579	89.0236	0.79	0.07	5.00	5.00	7.412	5.30504	7.39529	2.0
8.8779	89.0236	0.79	0.07	5.00	5.00	7.412	5.30246	7.39714	0.0
8.8979	89.0236	0.79	0.07	5.00	5.00	7.412	5.29987	7.39899	4.0
8.9179	89.0236	0.79	0.07	5.00	5.00	7.412	5.29729	7.40084	0.0
8.9379	89.0236	0.79	0.07	5.00	5.00	7.412	5.29471	7.40269	4.0
8.9579	89.0236	0.79	0.07	5.00	5.00	7.412	5.29212	7.40454	0.0
8.9779	89.0236	0.79	0.07	5.00	5.00	7.412	5.28954	7.40638	0.0
8.9979	89.0236	0.79	0.07	5.00	5.00	7.412	5.28695	7.40823	2.0
9.0179	89.0236	0.79	0.07	5.00	5.00	7.412	5.28437	7.41008	2.0
9.0379	89.0236	0.79	0.07	5.00	5.00	7.412	5.28178	7.41192	0.0
9.0579	89.0236	0.79	0.07	5.00	5.00	7.412	5.27919	7.41376	0.0
9.0779	89.0236	0.79	0.07	5.00	5.00	7.412	5.27660	7.41561	0.0
9.0979	89.0236	0.79	0.07	5.00	5.00	7.412	5.27401	7.41745	4.0
9.1179	89.0236	0.79	0.07	5.00	5.00	7.412	5.27142	7.41929	0.0
9.1379	89.0236	0.79	0.07	5.00	5.00	7.412	5.26883	7.42113	2.0
9.1579	89.0236	0.79	0.07	5.00	5.00	7.412	5.26624	7.42297	2.0
9.1779	89.0236	0.79	0.07	5.00	5.00	7.412	5.26365	7.42480	0.0
9.1979	89.0236	0.79	0.07	5.00	5.00	7.412	5.26106	7.42664	0.0
9.2179	89.0236	0.79	0.07	5.00	5.00	7.412	5.25847	7.42848	0.0
9.2379	89.0236	0.79	0.07	5.00	5.00	7.412	5.25587	7.43031	2.0
9.2579	89.0236	0.79	0.07	5.00	5.00	7.412	5.25328	7.43215	2.0
9.2779	89.0236	0.79	0.07	5.00	5.00	7.412	5.25069	7.43398	2.0
9.2979	89.0236	0.79	0.07	5.00	5.00	7.412	5.24809	7.43581	0.0
9.3179	89.0236	0.79	0.07	5.00	5.00	7.412	5.24549	7.43764	0.0
9.3379	89.0236	0.79	0.07	5.00	5.00	7.412	5.24290	7.43947	0.0
9.3579	89.0236	0.79	0.07	5.00	5.00	7.412	5.24030	7.44130	0.0
9.3779	89.0236	0.79	0.07	5.00	5.00	7.412	5.23770	7.44313	2.0
9.3979	89.0236	0.79	0.07	5.00	5.00	7.412	5.23510	7.44496	0.0
9.4179	89.0236	0.79	0.07	5.00	5.00	7.412	5.23250	7.44679	2.0
9.4379	89.0236	0.79	0.07	5.00	5.00	7.412	5.22990	7.44861	0.0
9.4579	89.0236	0.79	0.07	5.00	5.00	7.412	5.22730	7.45044	2.0
9.4779	89.0236	0.79	0.07	5.00	5.00	7.412	5.22470	7.45226	2.0
9.4979	89.0236	0.79	0.07	5.00	5.00	7.412	5.22210	7.45408	2.0
9.5179	89.0236	0.79	0.07	5.00	5.00	7.412	5.21950	7.45591	2.0
9.5379	89.0236	0.79	0.07	5.00	5.00	7.412	5.21690	7.45773	2.0
9.5579	89.0236	0.79	0.07	5.00	5.00	7.412	5.21429	7.45955	4.0
9.5779	89.0236	0.79	0.07	5.00	5.00	7.412	5.21169	7.46137	2.0
9.5979	89.0236	0.79	0.07	5.00	5.00	7.412	5.20908	7.46319	2.0
9.6179	89.0236	0.79	0.07	5.00	5.00	7.412	5.20648	7.46501	0.0
9.6379	89.0236	0.79	0.07	5.00	5.00	7.412	5.20387	7.46682	4.0
9.6579	89.0236	0.79	0.07	5.00	5.00	7.412	5.20127	7.46864	2.0
9.6779	89.0236	0.79	0.07	5.00	5.00	7.412	5.19866	7.47045	0.0
9.6979	89.0236	0.79	0.07	5.00	5.00	7.412	5.19605	7.47227	0.0
9.7179	89.0236	0.79	0.07	5.00	5.00	7.412	5.19344	7.47408	4.0
9.7379	89.0236	0.79	0.07	5.00	5.00	7.412	5.19083	7.47589	0.0
9.7579	89.0236	0.79	0.07	5.00	5.00	7.412	5.18822	7.47771	0.0
9.7779	89.0236	0.79	0.07	5.00	5.00	7.412	5.18561	7.47952	0.0
9.7979	89.0236	0.79	0.07	5.00	5.00	7.412	5.18300	7.48133	0.0
9.8179	89.0236	0.79	0.07	5.00	5.00	7.412	5.18039	7.48313	2.0
9.8379	89.0236	0.79	0.07	5.00	5.00	7.412	5.17778	7.48494	2.0
9.8579	89.0236	0.79	0.07	5.00	5.00	7.412	5.17516	7.48675	2.0
9.8779	89.0236	0.79	0.07	5.00	5.00	7.412	5.17255	7.48856	4.0
9.8979	89.0236	0.79	0.07	5.00	5.00	7.412	5.16994	7.49036	2.0
9.9179	89.0236	0.79	0.07	5.00	5.00	7.412	5.16732	7.49216	0.0
9.9379	89.0236	0.79	0.07	5.00	5.00	7.412	5.16471	7.49397	0.0
9.9579	89.0236	0.79	0.07	5.00	5.00	7.412	5.16209	7.49577	4.0
9.9779	89.0236	0.79	0.07	5.00	5.00	7.412	5.15947	7.49757	4.0
9.9979	89.0236	0.79	0.07	5.00	5.00	7.412	5.15685	7.49937	0.0
10.0179	89.0236	0.79	0.07	5.00	5.00	7.412	5.15424	7.50117	0.0
10.0379	89.0236	0.79	0.07	5.00	5.00	7.412	5.15162	7.50297	0.0
10.0579	89.0236	0.79	0.07	5.00	5.00	7.412	5.14900	7.50477	0.0
10.0779	89.0236	0.79	0.07	5.00	5.00	7.412	5.14638	7.50657	2.0
10.0979	89.0236	0.79	0.07	5.00	5.00	7.412	5.14376	7.50836	0.0
10.1179	89.0236	0.79	0.07	5.00	5.00	7.412	5.14114	7.51016	4.0
10.1379	89.0236	0.79	0.07	5.00	5.00	7.412	5.13851	7.51195	2.0
10.1579	89.0236	0.79	0.07	5.00	5.00	7.412	5.13589	7.51374	0.0
10.1779	89.0236	0.79	0.07	5.00	5.00	7.412	5.13327	7.51554	0.0
10.1979	89.0236	0.79	0.07	5.00	5.00	7.412	5.13065	7.51733	2.0
10.2179	89.0236	0.79	0.07	5.00	5.00	7.412	5.12802	7.51912	0.0
10.2379	89.0236	0.79	0.07	5.00	5.00	7.412	5.12540	7.52091	2.0
10.2579	89.0236	0.79	0.07	5.00	5.00	7.412	5.12277	7.52270	0.0
10.2779	89.0236	0.79	0.07	5.00	5.00	7.412	5.12014	7.52448	2.0
10.2979	89.0236	0.79	0.07	5.00	5.00	7.412	5.11752	7.52627	2.0
10.3179	89.0236	0.79	0.07	5.00	5.00	7.412	5.11489	7.52806	2.0
10.3379	89.0236	0.79	0.07	5.00	5.00	7.412	5.11226	7.52984	0.0
10.3579	89.0236	0.79	0.07	5.00	5.00	7.412	5.10963	7.53163	0.0
10.3779	89.0236	0.79	0.07	5.00	5.00	7.412	5.10700	7.53341	2.0