File: Data/113xx/Omega2Theta/1.5deg-2.0deg-rsm-2h30mins_11358-annealed_004_w_000-100.dat
# filename: 1.5deg-2.0deg-rsm-2h30mins_11358-annealed_004.dat
# reflection: (004)
# type: Projection of 100 omega2theta scans
# x-axis: omega2theta
#
# Omega	2Theta	Phi  	Chi   	X    	Y    	Z    	q_para	q_perp	Intensity
# [deg]	[deg] 	[deg]	[deg] 	[mm] 	[mm] 	[mm] 	[nm-1]	[nm-1]	[counts/s]
33.2167	66.6682	-0.24	0.31	0.00	-23.01	7.396	0.01462	7.13364	1.2
33.2267	66.6882	-0.24	0.31	0.00	-23.01	7.396	0.01462	7.13553	1.3
33.2367	66.7082	-0.24	0.31	0.00	-23.01	7.396	0.01462	7.13742	1.2
33.2467	66.7282	-0.24	0.31	0.00	-23.01	7.396	0.01463	7.13932	1.4
33.2567	66.7482	-0.24	0.31	0.00	-23.01	7.396	0.01463	7.14121	1.0
33.2667	66.7682	-0.24	0.31	0.00	-23.01	7.396	0.01464	7.14310	1.2
33.2767	66.7882	-0.24	0.31	0.00	-23.01	7.396	0.01464	7.14499	1.1
33.2867	66.8082	-0.24	0.31	0.00	-23.01	7.396	0.01464	7.14688	1.4
33.2967	66.8282	-0.24	0.31	0.00	-23.01	7.396	0.01465	7.14877	1.0
33.3067	66.8482	-0.24	0.31	0.00	-23.01	7.396	0.01465	7.15067	1.0
33.3167	66.8682	-0.24	0.31	0.00	-23.01	7.396	0.01466	7.15256	1.3
33.3267	66.8882	-0.24	0.31	0.00	-23.01	7.396	0.01466	7.15445	1.1
33.3367	66.9082	-0.24	0.31	0.00	-23.01	7.396	0.01466	7.15634	1.1
33.3467	66.9282	-0.24	0.31	0.00	-23.01	7.396	0.01467	7.15823	0.9
33.3567	66.9482	-0.24	0.31	0.00	-23.01	7.396	0.01467	7.16012	1.2
33.3667	66.9682	-0.24	0.31	0.00	-23.01	7.396	0.01468	7.16201	1.1
33.3767	66.9882	-0.24	0.31	0.00	-23.01	7.396	0.01468	7.16390	1.4
33.3867	67.0082	-0.24	0.31	0.00	-23.01	7.396	0.01468	7.16579	0.9
33.3967	67.0282	-0.24	0.31	0.00	-23.01	7.396	0.01469	7.16768	1.4
33.4067	67.0482	-0.24	0.31	0.00	-23.01	7.396	0.01469	7.16956	1.4
33.4167	67.0682	-0.24	0.31	0.00	-23.01	7.396	0.01469	7.17145	1.4
33.4267	67.0882	-0.24	0.31	0.00	-23.01	7.396	0.01470	7.17334	1.4
33.4367	67.1082	-0.24	0.31	0.00	-23.01	7.396	0.01470	7.17523	1.3
33.4467	67.1282	-0.24	0.31	0.00	-23.01	7.396	0.01471	7.17712	1.1
33.4567	67.1482	-0.24	0.31	0.00	-23.01	7.396	0.01471	7.17901	1.4
33.4667	67.1682	-0.24	0.31	0.00	-23.01	7.396	0.01471	7.18089	1.3
33.4767	67.1882	-0.24	0.31	0.00	-23.01	7.396	0.01472	7.18278	1.4
33.4867	67.2082	-0.24	0.31	0.00	-23.01	7.396	0.01472	7.18467	1.4
33.4967	67.2282	-0.24	0.31	0.00	-23.01	7.396	0.01473	7.18656	1.7
33.5067	67.2482	-0.24	0.31	0.00	-23.01	7.396	0.01473	7.18844	1.4
33.5167	67.2682	-0.24	0.31	0.00	-23.01	7.396	0.01473	7.19033	1.3
33.5267	67.2882	-0.24	0.31	0.00	-23.01	7.396	0.01474	7.19221	1.6
33.5367	67.3082	-0.24	0.31	0.00	-23.01	7.396	0.01474	7.19410	1.5
33.5467	67.3282	-0.24	0.31	0.00	-23.01	7.396	0.01474	7.19599	1.6
33.5567	67.3482	-0.24	0.31	0.00	-23.01	7.396	0.01475	7.19787	1.2
33.5667	67.3682	-0.24	0.31	0.00	-23.01	7.396	0.01475	7.19976	1.7
33.5767	67.3882	-0.24	0.31	0.00	-23.01	7.396	0.01476	7.20164	1.8
33.5867	67.4082	-0.24	0.31	0.00	-23.01	7.396	0.01476	7.20353	1.5
33.5967	67.4282	-0.24	0.31	0.00	-23.01	7.396	0.01476	7.20541	1.6
33.6067	67.4482	-0.24	0.31	0.00	-23.01	7.396	0.01477	7.20730	1.5
33.6167	67.4682	-0.24	0.31	0.00	-23.01	7.396	0.01477	7.20918	1.6
33.6267	67.4882	-0.24	0.31	0.00	-23.01	7.396	0.01478	7.21107	1.6
33.6367	67.5082	-0.24	0.31	0.00	-23.01	7.396	0.01478	7.21295	1.9
33.6467	67.5282	-0.24	0.31	0.00	-23.01	7.396	0.01478	7.21483	1.9
33.6567	67.5482	-0.24	0.31	0.00	-23.01	7.396	0.01479	7.21672	1.8
33.6667	67.5682	-0.24	0.31	0.00	-23.01	7.396	0.01479	7.21860	2.0
33.6767	67.5882	-0.24	0.31	0.00	-23.01	7.396	0.01479	7.22048	2.1
33.6867	67.6082	-0.24	0.31	0.00	-23.01	7.396	0.01480	7.22237	1.9
33.6967	67.6282	-0.24	0.31	0.00	-23.01	7.396	0.01480	7.22425	2.1
33.7067	67.6482	-0.24	0.31	0.00	-23.01	7.396	0.01481	7.22613	2.0
33.7167	67.6682	-0.24	0.31	0.00	-23.01	7.396	0.01481	7.22801	2.5
33.7267	67.6882	-0.24	0.31	0.00	-23.01	7.396	0.01481	7.22989	2.9
33.7367	67.7082	-0.24	0.31	0.00	-23.01	7.396	0.01482	7.23178	2.6
33.7467	67.7282	-0.24	0.31	0.00	-23.01	7.396	0.01482	7.23366	3.4
33.7567	67.7482	-0.24	0.31	0.00	-23.01	7.396	0.01483	7.23554	3.2
33.7667	67.7682	-0.24	0.31	0.00	-23.01	7.396	0.01483	7.23742	3.4
33.7767	67.7882	-0.24	0.31	0.00	-23.01	7.396	0.01483	7.23930	3.8
33.7867	67.8082	-0.24	0.31	0.00	-23.01	7.396	0.01484	7.24118	5.7
33.7967	67.8282	-0.24	0.31	0.00	-23.01	7.396	0.01484	7.24306	6.6
33.8067	67.8482	-0.24	0.31	0.00	-23.01	7.396	0.01484	7.24494	9.8
33.8167	67.8682	-0.24	0.31	0.00	-23.01	7.396	0.01485	7.24682	22.7
33.8267	67.8882	-0.24	0.31	0.00	-23.01	7.396	0.01485	7.24870	88.0
33.8367	67.9082	-0.24	0.31	0.00	-23.01	7.396	0.01486	7.25058	378.1
33.8467	67.9282	-0.24	0.31	0.00	-23.01	7.396	0.01486	7.25246	1803.2
33.8567	67.9482	-0.24	0.31	0.00	-23.01	7.396	0.01486	7.25434	2865.7
33.8667	67.9682	-0.24	0.31	0.00	-23.01	7.396	0.01487	7.25622	997.0
33.8767	67.9882	-0.24	0.31	0.00	-23.01	7.396	0.01487	7.25810	325.7
33.8867	68.0082	-0.24	0.31	0.00	-23.01	7.396	0.01488	7.25997	225.5
33.8967	68.0282	-0.24	0.31	0.00	-23.01	7.396	0.01488	7.26185	208.0
33.9067	68.0482	-0.24	0.31	0.00	-23.01	7.396	0.01488	7.26373	207.1
33.9167	68.0682	-0.24	0.31	0.00	-23.01	7.396	0.01489	7.26561	205.4
33.9267	68.0882	-0.24	0.31	0.00	-23.01	7.396	0.01489	7.26749	210.9
33.9367	68.1082	-0.24	0.31	0.00	-23.01	7.396	0.01489	7.26936	212.5
33.9467	68.1282	-0.24	0.31	0.00	-23.01	7.396	0.01490	7.27124	215.9
33.9567	68.1482	-0.24	0.31	0.00	-23.01	7.396	0.01490	7.27312	216.1
33.9667	68.1682	-0.24	0.31	0.00	-23.01	7.396	0.01491	7.27499	223.9
33.9767	68.1882	-0.24	0.31	0.00	-23.01	7.396	0.01491	7.27687	224.5
33.9867	68.2082	-0.24	0.31	0.00	-23.01	7.396	0.01491	7.27875	225.8
33.9967	68.2282	-0.24	0.31	0.00	-23.01	7.396	0.01492	7.28062	222.3
34.0067	68.2482	-0.24	0.31	0.00	-23.01	7.396	0.01492	7.28250	216.2
34.0167	68.2682	-0.24	0.31	0.00	-23.01	7.396	0.01493	7.28437	210.1
34.0267	68.2882	-0.24	0.31	0.00	-23.01	7.396	0.01493	7.28625	204.3
34.0367	68.3082	-0.24	0.31	0.00	-23.01	7.396	0.01493	7.28812	198.8
34.0467	68.3282	-0.24	0.31	0.00	-23.01	7.396	0.01494	7.29000	200.0
34.0567	68.3482	-0.24	0.31	0.00	-23.01	7.396	0.01494	7.29187	192.8
34.0667	68.3682	-0.24	0.31	0.00	-23.01	7.396	0.01495	7.29375	190.1
34.0767	68.3882	-0.24	0.31	0.00	-23.01	7.396	0.01495	7.29562	188.4
34.0867	68.4082	-0.24	0.31	0.00	-23.01	7.396	0.01495	7.29750	184.6
34.0967	68.4282	-0.24	0.31	0.00	-23.01	7.396	0.01496	7.29937	180.0
34.1067	68.4482	-0.24	0.31	0.00	-23.01	7.396	0.01496	7.30124	183.5
34.1167	68.4682	-0.24	0.31	0.00	-23.01	7.396	0.01496	7.30312	180.4
34.1267	68.4882	-0.24	0.31	0.00	-23.01	7.396	0.01497	7.30499	180.3
34.1367	68.5082	-0.24	0.31	0.00	-23.01	7.396	0.01497	7.30686	178.9
34.1467	68.5282	-0.24	0.31	0.00	-23.01	7.396	0.01498	7.30874	172.8
34.1567	68.5482	-0.24	0.31	0.00	-23.01	7.396	0.01498	7.31061	172.3
34.1667	68.5682	-0.24	0.31	0.00	-23.01	7.396	0.01498	7.31248	165.3
34.1767	68.5882	-0.24	0.31	0.00	-23.01	7.396	0.01499	7.31435	162.9
34.1867	68.6082	-0.24	0.31	0.00	-23.01	7.396	0.01499	7.31622	160.2
34.1967	68.6282	-0.24	0.31	0.00	-23.01	7.396	0.01499	7.31810	160.1
34.2067	68.6482	-0.24	0.31	0.00	-23.01	7.396	0.01500	7.31997	157.3
34.2167	68.6682	-0.24	0.31	0.00	-23.01	7.396	0.01500	7.32184	161.4
34.2267	68.6882	-0.24	0.31	0.00	-23.01	7.396	0.01501	7.32371	158.3
34.2367	68.7082	-0.24	0.31	0.00	-23.01	7.396	0.01501	7.32558	158.3
34.2467	68.7282	-0.24	0.31	0.00	-23.01	7.396	0.01501	7.32745	150.7
34.2567	68.7482	-0.24	0.31	0.00	-23.01	7.396	0.01502	7.32932	149.2
34.2667	68.7682	-0.24	0.31	0.00	-23.01	7.396	0.01502	7.33119	148.1
34.2767	68.7882	-0.24	0.31	0.00	-23.01	7.396	0.01503	7.33306	146.0
34.2867	68.8082	-0.24	0.31	0.00	-23.01	7.396	0.01503	7.33493	148.9
34.2967	68.8282	-0.24	0.31	0.00	-23.01	7.396	0.01503	7.33680	147.1
34.3067	68.8482	-0.24	0.31	0.00	-23.01	7.396	0.01504	7.33867	144.6
34.3167	68.8682	-0.24	0.31	0.00	-23.01	7.396	0.01504	7.34054	141.1
34.3267	68.8882	-0.24	0.31	0.00	-23.01	7.396	0.01504	7.34240	140.1
34.3367	68.9082	-0.24	0.31	0.00	-23.01	7.396	0.01505	7.34427	136.2
34.3467	68.9282	-0.24	0.31	0.00	-23.01	7.396	0.01505	7.34614	133.6
34.3567	68.9482	-0.24	0.31	0.00	-23.01	7.396	0.01506	7.34801	134.1
34.3667	68.9682	-0.24	0.31	0.00	-23.01	7.396	0.01506	7.34988	132.2
34.3767	68.9882	-0.24	0.31	0.00	-23.01	7.396	0.01506	7.35174	129.3
34.3867	69.0082	-0.24	0.31	0.00	-23.01	7.396	0.01507	7.35361	124.3
34.3967	69.0282	-0.24	0.31	0.00	-23.01	7.396	0.01507	7.35548	118.1
34.4067	69.0482	-0.24	0.31	0.00	-23.01	7.396	0.01508	7.35735	112.1
34.4167	69.0682	-0.24	0.31	0.00	-23.01	7.396	0.01508	7.35921	106.1
34.4267	69.0882	-0.24	0.31	0.00	-23.01	7.396	0.01508	7.36108	104.8
34.4367	69.1082	-0.24	0.31	0.00	-23.01	7.396	0.01509	7.36294	133.9
34.4467	69.1282	-0.24	0.31	0.00	-23.01	7.396	0.01509	7.36481	988.5
34.4567	69.1482	-0.24	0.31	0.00	-23.01	7.396	0.01509	7.36668	5042.4
34.4667	69.1682	-0.24	0.31	0.00	-23.01	7.396	0.01510	7.36854	2403.9
34.4767	69.1882	-0.24	0.31	0.00	-23.01	7.396	0.01510	7.37041	441.2
34.4867	69.2082	-0.24	0.31	0.00	-23.01	7.396	0.01511	7.37227	96.9
34.4967	69.2282	-0.24	0.31	0.00	-23.01	7.396	0.01511	7.37414	35.6
34.5067	69.2482	-0.24	0.31	0.00	-23.01	7.396	0.01511	7.37600	10.4
34.5167	69.2682	-0.24	0.31	0.00	-23.01	7.396	0.01512	7.37787	5.7
34.5267	69.2882	-0.24	0.31	0.00	-23.01	7.396	0.01512	7.37973	3.9
34.5367	69.3082	-0.24	0.31	0.00	-23.01	7.396	0.01513	7.38159	3.6
34.5467	69.3282	-0.24	0.31	0.00	-23.01	7.396	0.01513	7.38346	3.0
34.5567	69.3482	-0.24	0.31	0.00	-23.01	7.396	0.01513	7.38532	2.4
34.5667	69.3682	-0.24	0.31	0.00	-23.01	7.396	0.01514	7.38718	2.3
34.5767	69.3882	-0.24	0.31	0.00	-23.01	7.396	0.01514	7.38905	3.0
34.5867	69.4082	-0.24	0.31	0.00	-23.01	7.396	0.01514	7.39091	2.6
34.5967	69.4282	-0.24	0.31	0.00	-23.01	7.396	0.01515	7.39277	2.6
34.6067	69.4482	-0.24	0.31	0.00	-23.01	7.396	0.01515	7.39463	2.3
34.6167	69.4682	-0.24	0.31	0.00	-23.01	7.396	0.01516	7.39650	2.3
34.6267	69.4882	-0.24	0.31	0.00	-23.01	7.396	0.01516	7.39836	2.2
34.6367	69.5082	-0.24	0.31	0.00	-23.01	7.396	0.01516	7.40022	2.1
34.6467	69.5282	-0.24	0.31	0.00	-23.01	7.396	0.01517	7.40208	2.4
34.6567	69.5482	-0.24	0.31	0.00	-23.01	7.396	0.01517	7.40394	2.0
34.6667	69.5682	-0.24	0.31	0.00	-23.01	7.396	0.01517	7.40580	2.1
34.6767	69.5882	-0.24	0.31	0.00	-23.01	7.396	0.01518	7.40766	1.8
34.6867	69.6082	-0.24	0.31	0.00	-23.01	7.396	0.01518	7.40952	1.9
34.6967	69.6282	-0.24	0.31	0.00	-23.01	7.396	0.01519	7.41138	2.0