File: Data/113xx/Omega2Theta/2.0deg-2.0deg-rsm-3h10m_11354-as-grown_224_w_000-100.dat
# filename: 2.0deg-2.0deg-rsm-3h10m_11354-as-grown_224.dat
# reflection: (004)
# type: Projection of 100 omega2theta scans
# x-axis: omega2theta
#
# Omega	2Theta	Phi  	Chi   	X    	Y    	Z    	q_para	q_perp	Intensity
# [deg]	[deg] 	[deg]	[deg] 	[mm] 	[mm] 	[mm] 	[nm-1]	[nm-1]	[counts/s]
6.8865	85.0720	1.74	0.08	10.00	20.00	7.278	5.11502	7.13156	1.8
6.9065	85.1120	1.74	0.08	10.00	20.00	7.278	5.11697	7.13428	1.7
6.9265	85.1520	1.74	0.08	10.00	20.00	7.278	5.11891	7.13699	1.3
6.9465	85.1920	1.74	0.08	10.00	20.00	7.278	5.12086	7.13970	1.5
6.9665	85.2320	1.74	0.08	10.00	20.00	7.278	5.12280	7.14241	1.7
6.9865	85.2720	1.74	0.08	10.00	20.00	7.278	5.12475	7.14512	1.4
7.0065	85.3120	1.74	0.08	10.00	20.00	7.278	5.12669	7.14783	1.8
7.0265	85.3520	1.74	0.08	10.00	20.00	7.278	5.12863	7.15054	1.6
7.0465	85.3920	1.74	0.08	10.00	20.00	7.278	5.13057	7.15324	1.7
7.0665	85.4320	1.74	0.08	10.00	20.00	7.278	5.13251	7.15595	1.5
7.0865	85.4720	1.74	0.08	10.00	20.00	7.278	5.13445	7.15865	1.6
7.1065	85.5120	1.74	0.08	10.00	20.00	7.278	5.13639	7.16136	2.0
7.1265	85.5520	1.74	0.08	10.00	20.00	7.278	5.13833	7.16406	1.7
7.1465	85.5920	1.74	0.08	10.00	20.00	7.278	5.14027	7.16676	1.9
7.1665	85.6320	1.74	0.08	10.00	20.00	7.278	5.14221	7.16946	1.8
7.1865	85.6720	1.74	0.08	10.00	20.00	7.278	5.14414	7.17216	1.8
7.2065	85.7120	1.74	0.08	10.00	20.00	7.278	5.14608	7.17486	1.9
7.2265	85.7520	1.74	0.08	10.00	20.00	7.278	5.14802	7.17756	1.9
7.2465	85.7920	1.74	0.08	10.00	20.00	7.278	5.14995	7.18026	2.1
7.2665	85.8320	1.74	0.08	10.00	20.00	7.278	5.15189	7.18296	2.4
7.2865	85.8720	1.74	0.08	10.00	20.00	7.278	5.15382	7.18565	2.4
7.3065	85.9120	1.74	0.08	10.00	20.00	7.278	5.15575	7.18835	2.4
7.3265	85.9520	1.74	0.08	10.00	20.00	7.278	5.15769	7.19104	2.4
7.3465	85.9920	1.74	0.08	10.00	20.00	7.278	5.15962	7.19374	2.8
7.3665	86.0320	1.74	0.08	10.00	20.00	7.278	5.16155	7.19643	3.1
7.3865	86.0720	1.74	0.08	10.00	20.00	7.278	5.16348	7.19912	3.3
7.4065	86.1120	1.74	0.08	10.00	20.00	7.278	5.16541	7.20181	3.6
7.4265	86.1520	1.74	0.08	10.00	20.00	7.278	5.16734	7.20450	4.0
7.4465	86.1920	1.74	0.08	10.00	20.00	7.278	5.16927	7.20719	5.3
7.4665	86.2320	1.74	0.08	10.00	20.00	7.278	5.17120	7.20988	6.5
7.4865	86.2720	1.74	0.08	10.00	20.00	7.278	5.17312	7.21257	19.1
7.5065	86.3120	1.74	0.08	10.00	20.00	7.278	5.17505	7.21526	121.4
7.5265	86.3520	1.74	0.08	10.00	20.00	7.278	5.17698	7.21794	1605.6
7.5465	86.3920	1.74	0.08	10.00	20.00	7.278	5.17890	7.22063	2050.7
7.5665	86.4320	1.74	0.08	10.00	20.00	7.278	5.18083	7.22331	403.0
7.5865	86.4720	1.74	0.08	10.00	20.00	7.278	5.18275	7.22599	191.9
7.6065	86.5120	1.74	0.08	10.00	20.00	7.278	5.18468	7.22868	176.7
7.6265	86.5520	1.74	0.08	10.00	20.00	7.278	5.18660	7.23136	171.9
7.6465	86.5920	1.74	0.08	10.00	20.00	7.278	5.18852	7.23404	166.9
7.6665	86.6320	1.74	0.08	10.00	20.00	7.278	5.19044	7.23672	170.8
7.6865	86.6720	1.74	0.08	10.00	20.00	7.278	5.19236	7.23940	172.6
7.7065	86.7120	1.74	0.08	10.00	20.00	7.278	5.19428	7.24207	172.2
7.7265	86.7520	1.74	0.08	10.00	20.00	7.278	5.19620	7.24475	168.6
7.7465	86.7920	1.74	0.08	10.00	20.00	7.278	5.19812	7.24743	160.9
7.7665	86.8320	1.74	0.08	10.00	20.00	7.278	5.20004	7.25010	154.6
7.7865	86.8720	1.74	0.08	10.00	20.00	7.278	5.20196	7.25278	148.8
7.8065	86.9120	1.74	0.08	10.00	20.00	7.278	5.20388	7.25545	140.5
7.8265	86.9520	1.74	0.08	10.00	20.00	7.278	5.20579	7.25812	134.9
7.8465	86.9920	1.74	0.08	10.00	20.00	7.278	5.20771	7.26079	125.3
7.8665	87.0320	1.74	0.08	10.00	20.00	7.278	5.20963	7.26346	128.2
7.8865	87.0720	1.74	0.08	10.00	20.00	7.278	5.21154	7.26613	125.0
7.9065	87.1120	1.74	0.08	10.00	20.00	7.278	5.21346	7.26880	120.5
7.9265	87.1520	1.74	0.08	10.00	20.00	7.278	5.21537	7.27147	117.7
7.9465	87.1920	1.74	0.08	10.00	20.00	7.278	5.21728	7.27414	113.8
7.9665	87.2320	1.74	0.08	10.00	20.00	7.278	5.21920	7.27680	107.1
7.9865	87.2720	1.74	0.08	10.00	20.00	7.278	5.22111	7.27947	105.3
8.0065	87.3120	1.74	0.08	10.00	20.00	7.278	5.22302	7.28213	102.3
8.0265	87.3520	1.74	0.08	10.00	20.00	7.278	5.22493	7.28480	102.3
8.0465	87.3920	1.74	0.08	10.00	20.00	7.278	5.22684	7.28746	99.2
8.0665	87.4320	1.74	0.08	10.00	20.00	7.278	5.22875	7.29012	92.6
8.0865	87.4720	1.74	0.08	10.00	20.00	7.278	5.23066	7.29278	91.8
8.1065	87.5120	1.74	0.08	10.00	20.00	7.278	5.23256	7.29544	87.4
8.1265	87.5520	1.74	0.08	10.00	20.00	7.278	5.23447	7.29810	86.9
8.1465	87.5920	1.74	0.08	10.00	20.00	7.278	5.23638	7.30076	87.1
8.1665	87.6320	1.74	0.08	10.00	20.00	7.278	5.23828	7.30342	85.0
8.1865	87.6720	1.74	0.08	10.00	20.00	7.278	5.24019	7.30608	83.1
8.2065	87.7120	1.74	0.08	10.00	20.00	7.278	5.24209	7.30873	80.7
8.2265	87.7520	1.74	0.08	10.00	20.00	7.278	5.24400	7.31139	78.0
8.2465	87.7920	1.74	0.08	10.00	20.00	7.278	5.24590	7.31404	79.7
8.2665	87.8320	1.74	0.08	10.00	20.00	7.278	5.24780	7.31669	75.5
8.2865	87.8720	1.74	0.08	10.00	20.00	7.278	5.24971	7.31934	73.1
8.3065	87.9120	1.74	0.08	10.00	20.00	7.278	5.25161	7.32200	70.1
8.3265	87.9520	1.74	0.08	10.00	20.00	7.278	5.25351	7.32465	68.6
8.3465	87.9920	1.74	0.08	10.00	20.00	7.278	5.25541	7.32730	76.8
8.3665	88.0320	1.74	0.08	10.00	20.00	7.278	5.25731	7.32994	513.6
8.3865	88.0720	1.74	0.08	10.00	20.00	7.278	5.25921	7.33259	695.8
8.4065	88.1120	1.74	0.08	10.00	20.00	7.278	5.26111	7.33524	93.7
8.4265	88.1520	1.74	0.08	10.00	20.00	7.278	5.26300	7.33788	10.1
8.4465	88.1920	1.74	0.08	10.00	20.00	7.278	5.26490	7.34053	4.4
8.4665	88.2320	1.74	0.08	10.00	20.00	7.278	5.26680	7.34317	3.4
8.4865	88.2720	1.74	0.08	10.00	20.00	7.278	5.26869	7.34582	2.0
8.5065	88.3120	1.74	0.08	10.00	20.00	7.278	5.27059	7.34846	2.4
8.5265	88.3520	1.74	0.08	10.00	20.00	7.278	5.27248	7.35110	1.8
8.5465	88.3920	1.74	0.08	10.00	20.00	7.278	5.27438	7.35374	2.1
8.5665	88.4320	1.74	0.08	10.00	20.00	7.278	5.27627	7.35638	2.5
8.5865	88.4720	1.74	0.08	10.00	20.00	7.278	5.27816	7.35902	1.6
8.6065	88.5120	1.74	0.08	10.00	20.00	7.278	5.28005	7.36166	1.9
8.6265	88.5520	1.74	0.08	10.00	20.00	7.278	5.28195	7.36429	1.8
8.6465	88.5920	1.74	0.08	10.00	20.00	7.278	5.28384	7.36693	1.5
8.6665	88.6320	1.74	0.08	10.00	20.00	7.278	5.28573	7.36956	2.2
8.6865	88.6720	1.74	0.08	10.00	20.00	7.278	5.28762	7.37220	1.4
8.7065	88.7120	1.74	0.08	10.00	20.00	7.278	5.28950	7.37483	1.4
8.7265	88.7520	1.74	0.08	10.00	20.00	7.278	5.29139	7.37746	1.4
8.7465	88.7920	1.74	0.08	10.00	20.00	7.278	5.29328	7.38010	1.3
8.7665	88.8320	1.74	0.08	10.00	20.00	7.278	5.29517	7.38273	1.6
8.7865	88.8720	1.74	0.08	10.00	20.00	7.278	5.29705	7.38536	1.5
8.8065	88.9120	1.74	0.08	10.00	20.00	7.278	5.29894	7.38798	1.5
8.8265	88.9520	1.74	0.08	10.00	20.00	7.278	5.30082	7.39061	1.6
8.8465	88.9920	1.74	0.08	10.00	20.00	7.278	5.30271	7.39324	1.6
8.8665	89.0320	1.74	0.08	10.00	20.00	7.278	5.30459	7.39587	1.6