File: Data/113xx/Omega2Theta/2.0deg-2.0deg-rsm-3h10m_11355-as-grown_224_w_000-100.dat
# filename: 2.0deg-2.0deg-rsm-3h10m_11355-as-grown_224.dat
# reflection: (004)
# type: Projection of 100 omega2theta scans
# x-axis: omega2theta
#
# Omega	2Theta	Phi  	Chi   	X    	Y    	Z    	q_para	q_perp	Intensity
# [deg]	[deg] 	[deg]	[deg] 	[mm] 	[mm] 	[mm] 	[nm-1]	[nm-1]	[counts/s]
7.1078	85.0726	0.46	0.10	-30.00	-20.00	7.373	5.08751	7.15128	1.2
7.1278	85.1126	0.46	0.10	-30.00	-20.00	7.373	5.08944	7.15400	1.4
7.1478	85.1526	0.46	0.10	-30.00	-20.00	7.373	5.09138	7.15672	1.4
7.1678	85.1926	0.46	0.10	-30.00	-20.00	7.373	5.09331	7.15944	1.6
7.1878	85.2326	0.46	0.10	-30.00	-20.00	7.373	5.09524	7.16216	1.2
7.2078	85.2726	0.46	0.10	-30.00	-20.00	7.373	5.09718	7.16487	1.3
7.2278	85.3126	0.46	0.10	-30.00	-20.00	7.373	5.09911	7.16759	1.5
7.2478	85.3526	0.46	0.10	-30.00	-20.00	7.373	5.10104	7.17031	1.5
7.2678	85.3926	0.46	0.10	-30.00	-20.00	7.373	5.10297	7.17302	1.4
7.2878	85.4326	0.46	0.10	-30.00	-20.00	7.373	5.10490	7.17573	1.5
7.3078	85.4726	0.46	0.10	-30.00	-20.00	7.373	5.10683	7.17844	1.7
7.3278	85.5126	0.46	0.10	-30.00	-20.00	7.373	5.10876	7.18116	1.7
7.3478	85.5526	0.46	0.10	-30.00	-20.00	7.373	5.11069	7.18387	1.5
7.3678	85.5926	0.46	0.10	-30.00	-20.00	7.373	5.11262	7.18658	2.1
7.3878	85.6326	0.46	0.10	-30.00	-20.00	7.373	5.11454	7.18929	1.8
7.4078	85.6726	0.46	0.10	-30.00	-20.00	7.373	5.11647	7.19199	1.8
7.4278	85.7126	0.46	0.10	-30.00	-20.00	7.373	5.11840	7.19470	1.8
7.4478	85.7526	0.46	0.10	-30.00	-20.00	7.373	5.12032	7.19741	2.3
7.4678	85.7926	0.46	0.10	-30.00	-20.00	7.373	5.12225	7.20011	1.9
7.4878	85.8326	0.46	0.10	-30.00	-20.00	7.373	5.12417	7.20282	1.7
7.5078	85.8726	0.46	0.10	-30.00	-20.00	7.373	5.12609	7.20552	2.0
7.5278	85.9126	0.46	0.10	-30.00	-20.00	7.373	5.12802	7.20822	2.5
7.5478	85.9526	0.46	0.10	-30.00	-20.00	7.373	5.12994	7.21093	2.8
7.5678	85.9926	0.46	0.10	-30.00	-20.00	7.373	5.13186	7.21363	2.8
7.5878	86.0326	0.46	0.10	-30.00	-20.00	7.373	5.13378	7.21633	3.1
7.6078	86.0726	0.46	0.10	-30.00	-20.00	7.373	5.13570	7.21903	3.3
7.6278	86.1126	0.46	0.10	-30.00	-20.00	7.373	5.13762	7.22172	3.1
7.6478	86.1526	0.46	0.10	-30.00	-20.00	7.373	5.13954	7.22442	4.0
7.6678	86.1926	0.46	0.10	-30.00	-20.00	7.373	5.14146	7.22712	4.6
7.6878	86.2326	0.46	0.10	-30.00	-20.00	7.373	5.14338	7.22982	6.4
7.7078	86.2726	0.46	0.10	-30.00	-20.00	7.373	5.14529	7.23251	11.0
7.7278	86.3126	0.46	0.10	-30.00	-20.00	7.373	5.14721	7.23520	45.9
7.7478	86.3526	0.46	0.10	-30.00	-20.00	7.373	5.14913	7.23790	678.4
7.7678	86.3926	0.46	0.10	-30.00	-20.00	7.373	5.15104	7.24059	2890.7
7.7878	86.4326	0.46	0.10	-30.00	-20.00	7.373	5.15296	7.24328	647.3
7.8078	86.4726	0.46	0.10	-30.00	-20.00	7.373	5.15487	7.24597	223.8
7.8278	86.5126	0.46	0.10	-30.00	-20.00	7.373	5.15678	7.24866	190.8
7.8478	86.5526	0.46	0.10	-30.00	-20.00	7.373	5.15870	7.25135	183.2
7.8678	86.5926	0.46	0.10	-30.00	-20.00	7.373	5.16061	7.25404	180.0
7.8878	86.6326	0.46	0.10	-30.00	-20.00	7.373	5.16252	7.25672	172.6
7.9078	86.6726	0.46	0.10	-30.00	-20.00	7.373	5.16443	7.25941	172.9
7.9278	86.7126	0.46	0.10	-30.00	-20.00	7.373	5.16634	7.26210	172.4
7.9478	86.7526	0.46	0.10	-30.00	-20.00	7.373	5.16825	7.26478	165.0
7.9678	86.7926	0.46	0.10	-30.00	-20.00	7.373	5.17016	7.26746	158.6
7.9878	86.8326	0.46	0.10	-30.00	-20.00	7.373	5.17207	7.27015	153.3
8.0078	86.8726	0.46	0.10	-30.00	-20.00	7.373	5.17398	7.27283	139.7
8.0278	86.9126	0.46	0.10	-30.00	-20.00	7.373	5.17588	7.27551	137.3
8.0478	86.9526	0.46	0.10	-30.00	-20.00	7.373	5.17779	7.27819	130.2
8.0678	86.9926	0.46	0.10	-30.00	-20.00	7.373	5.17970	7.28087	122.5
8.0878	87.0326	0.46	0.10	-30.00	-20.00	7.373	5.18160	7.28354	121.8
8.1078	87.0726	0.46	0.10	-30.00	-20.00	7.373	5.18351	7.28622	121.6
8.1278	87.1126	0.46	0.10	-30.00	-20.00	7.373	5.18541	7.28890	120.5
8.1478	87.1526	0.46	0.10	-30.00	-20.00	7.373	5.18731	7.29157	114.4
8.1678	87.1926	0.46	0.10	-30.00	-20.00	7.373	5.18921	7.29425	111.9
8.1878	87.2326	0.46	0.10	-30.00	-20.00	7.373	5.19112	7.29692	105.1
8.2078	87.2726	0.46	0.10	-30.00	-20.00	7.373	5.19302	7.29959	105.4
8.2278	87.3126	0.46	0.10	-30.00	-20.00	7.373	5.19492	7.30227	102.0
8.2478	87.3526	0.46	0.10	-30.00	-20.00	7.373	5.19682	7.30494	100.7
8.2678	87.3926	0.46	0.10	-30.00	-20.00	7.373	5.19872	7.30761	97.3
8.2878	87.4326	0.46	0.10	-30.00	-20.00	7.373	5.20062	7.31028	94.0
8.3078	87.4726	0.46	0.10	-30.00	-20.00	7.373	5.20252	7.31294	91.7
8.3278	87.5126	0.46	0.10	-30.00	-20.00	7.373	5.20441	7.31561	86.1
8.3478	87.5526	0.46	0.10	-30.00	-20.00	7.373	5.20631	7.31828	85.9
8.3678	87.5926	0.46	0.10	-30.00	-20.00	7.373	5.20821	7.32094	86.1
8.3878	87.6326	0.46	0.10	-30.00	-20.00	7.373	5.21010	7.32361	81.6
8.4078	87.6726	0.46	0.10	-30.00	-20.00	7.373	5.21200	7.32627	78.0
8.4278	87.7126	0.46	0.10	-30.00	-20.00	7.373	5.21389	7.32894	76.1
8.4478	87.7526	0.46	0.10	-30.00	-20.00	7.373	5.21579	7.33160	72.9
8.4678	87.7926	0.46	0.10	-30.00	-20.00	7.373	5.21768	7.33426	70.4
8.4878	87.8326	0.46	0.10	-30.00	-20.00	7.373	5.21957	7.33692	70.9
8.5078	87.8726	0.46	0.10	-30.00	-20.00	7.373	5.22146	7.33958	67.3
8.5278	87.9126	0.46	0.10	-30.00	-20.00	7.373	5.22336	7.34224	65.4
8.5478	87.9526	0.46	0.10	-30.00	-20.00	7.373	5.22525	7.34490	60.3
8.5678	87.9926	0.46	0.10	-30.00	-20.00	7.373	5.22714	7.34755	74.0
8.5878	88.0326	0.46	0.10	-30.00	-20.00	7.373	5.22903	7.35021	855.7
8.6078	88.0726	0.46	0.10	-30.00	-20.00	7.373	5.23091	7.35286	913.4
8.6278	88.1126	0.46	0.10	-30.00	-20.00	7.373	5.23280	7.35552	110.7
8.6478	88.1526	0.46	0.10	-30.00	-20.00	7.373	5.23469	7.35817	10.9
8.6678	88.1926	0.46	0.10	-30.00	-20.00	7.373	5.23658	7.36082	5.6
8.6878	88.2326	0.46	0.10	-30.00	-20.00	7.373	5.23846	7.36347	3.3
8.7078	88.2726	0.46	0.10	-30.00	-20.00	7.373	5.24035	7.36612	2.4
8.7278	88.3126	0.46	0.10	-30.00	-20.00	7.373	5.24223	7.36877	2.4
8.7478	88.3526	0.46	0.10	-30.00	-20.00	7.373	5.24412	7.37142	2.3
8.7678	88.3926	0.46	0.10	-30.00	-20.00	7.373	5.24600	7.37407	2.4
8.7878	88.4326	0.46	0.10	-30.00	-20.00	7.373	5.24788	7.37672	2.0
8.8078	88.4726	0.46	0.10	-30.00	-20.00	7.373	5.24977	7.37936	1.8
8.8278	88.5126	0.46	0.10	-30.00	-20.00	7.373	5.25165	7.38201	1.9
8.8478	88.5526	0.46	0.10	-30.00	-20.00	7.373	5.25353	7.38465	2.1
8.8678	88.5926	0.46	0.10	-30.00	-20.00	7.373	5.25541	7.38729	1.8
8.8878	88.6326	0.46	0.10	-30.00	-20.00	7.373	5.25729	7.38994	1.6
8.9078	88.6726	0.46	0.10	-30.00	-20.00	7.373	5.25917	7.39258	1.7
8.9278	88.7126	0.46	0.10	-30.00	-20.00	7.373	5.26105	7.39522	1.7
8.9478	88.7526	0.46	0.10	-30.00	-20.00	7.373	5.26292	7.39786	1.9
8.9678	88.7926	0.46	0.10	-30.00	-20.00	7.373	5.26480	7.40050	1.6
8.9878	88.8326	0.46	0.10	-30.00	-20.00	7.373	5.26668	7.40314	1.3
9.0078	88.8726	0.46	0.10	-30.00	-20.00	7.373	5.26855	7.40577	1.5
9.0278	88.9126	0.46	0.10	-30.00	-20.00	7.373	5.27043	7.40841	1.4
9.0478	88.9526	0.46	0.10	-30.00	-20.00	7.373	5.27230	7.41104	1.4
9.0678	88.9926	0.46	0.10	-30.00	-20.00	7.373	5.27418	7.41368	1.4
9.0878	89.0326	0.46	0.10	-30.00	-20.00	7.373	5.27605	7.41631	1.5