File: Data/113xx/Omega2Theta/2.0deg-2.0deg-rsm-3h10m_11358-as-grown_224_w_000-100.dat
# filename: 2.0deg-2.0deg-rsm-3h10m_11358-as-grown_224.dat
# reflection: (004)
# type: Projection of 100 omega2theta scans
# x-axis: omega2theta
#
# Omega	2Theta	Phi  	Chi   	X    	Y    	Z    	q_para	q_perp	Intensity
# [deg]	[deg] 	[deg]	[deg] 	[mm] 	[mm] 	[mm] 	[nm-1]	[nm-1]	[counts/s]
7.0787	85.0734	2.82	0.06	10.00	-20.00	7.326	5.09123	7.14872	1.3
7.0987	85.1134	2.82	0.06	10.00	-20.00	7.326	5.09316	7.15143	1.4
7.1187	85.1534	2.82	0.06	10.00	-20.00	7.326	5.09510	7.15415	1.1
7.1387	85.1934	2.82	0.06	10.00	-20.00	7.326	5.09703	7.15687	1.7
7.1587	85.2334	2.82	0.06	10.00	-20.00	7.326	5.09897	7.15959	1.6
7.1787	85.2734	2.82	0.06	10.00	-20.00	7.326	5.10090	7.16230	1.3
7.1987	85.3134	2.82	0.06	10.00	-20.00	7.326	5.10284	7.16502	1.8
7.2187	85.3534	2.82	0.06	10.00	-20.00	7.326	5.10477	7.16773	1.5
7.2387	85.3934	2.82	0.06	10.00	-20.00	7.326	5.10670	7.17044	1.5
7.2587	85.4334	2.82	0.06	10.00	-20.00	7.326	5.10863	7.17316	1.4
7.2787	85.4734	2.82	0.06	10.00	-20.00	7.326	5.11057	7.17587	1.9
7.2987	85.5134	2.82	0.06	10.00	-20.00	7.326	5.11250	7.17858	1.7
7.3187	85.5534	2.82	0.06	10.00	-20.00	7.326	5.11443	7.18129	1.8
7.3387	85.5934	2.82	0.06	10.00	-20.00	7.326	5.11635	7.18400	2.0
7.3587	85.6334	2.82	0.06	10.00	-20.00	7.326	5.11828	7.18671	1.4
7.3787	85.6734	2.82	0.06	10.00	-20.00	7.326	5.12021	7.18941	1.7
7.3987	85.7134	2.82	0.06	10.00	-20.00	7.326	5.12214	7.19212	1.7
7.4187	85.7534	2.82	0.06	10.00	-20.00	7.326	5.12406	7.19482	1.8
7.4387	85.7934	2.82	0.06	10.00	-20.00	7.326	5.12599	7.19753	2.3
7.4587	85.8334	2.82	0.06	10.00	-20.00	7.326	5.12792	7.20023	2.0
7.4787	85.8734	2.82	0.06	10.00	-20.00	7.326	5.12984	7.20293	2.2
7.4987	85.9134	2.82	0.06	10.00	-20.00	7.326	5.13177	7.20564	2.9
7.5187	85.9534	2.82	0.06	10.00	-20.00	7.326	5.13369	7.20834	2.6
7.5387	85.9934	2.82	0.06	10.00	-20.00	7.326	5.13561	7.21104	2.2
7.5587	86.0334	2.82	0.06	10.00	-20.00	7.326	5.13753	7.21374	3.2
7.5787	86.0734	2.82	0.06	10.00	-20.00	7.326	5.13946	7.21644	3.0
7.5987	86.1134	2.82	0.06	10.00	-20.00	7.326	5.14138	7.21913	3.3
7.6187	86.1534	2.82	0.06	10.00	-20.00	7.326	5.14330	7.22183	3.8
7.6387	86.1934	2.82	0.06	10.00	-20.00	7.326	5.14522	7.22452	4.1
7.6587	86.2334	2.82	0.06	10.00	-20.00	7.326	5.14714	7.22722	6.0
7.6787	86.2734	2.82	0.06	10.00	-20.00	7.326	5.14905	7.22991	11.2
7.6987	86.3134	2.82	0.06	10.00	-20.00	7.326	5.15097	7.23261	43.6
7.7187	86.3534	2.82	0.06	10.00	-20.00	7.326	5.15289	7.23530	621.0
7.7387	86.3934	2.82	0.06	10.00	-20.00	7.326	5.15481	7.23799	2797.5
7.7587	86.4334	2.82	0.06	10.00	-20.00	7.326	5.15672	7.24068	661.0
7.7787	86.4734	2.82	0.06	10.00	-20.00	7.326	5.15864	7.24337	215.1
7.7987	86.5134	2.82	0.06	10.00	-20.00	7.326	5.16055	7.24606	182.5
7.8187	86.5534	2.82	0.06	10.00	-20.00	7.326	5.16247	7.24875	174.5
7.8387	86.5934	2.82	0.06	10.00	-20.00	7.326	5.16438	7.25143	168.9
7.8587	86.6334	2.82	0.06	10.00	-20.00	7.326	5.16629	7.25412	168.3
7.8787	86.6734	2.82	0.06	10.00	-20.00	7.326	5.16821	7.25680	170.0
7.8987	86.7134	2.82	0.06	10.00	-20.00	7.326	5.17012	7.25949	170.3
7.9187	86.7534	2.82	0.06	10.00	-20.00	7.326	5.17203	7.26217	161.6
7.9387	86.7934	2.82	0.06	10.00	-20.00	7.326	5.17394	7.26485	152.9
7.9587	86.8334	2.82	0.06	10.00	-20.00	7.326	5.17585	7.26754	145.5
7.9787	86.8734	2.82	0.06	10.00	-20.00	7.326	5.17776	7.27022	139.9
7.9987	86.9134	2.82	0.06	10.00	-20.00	7.326	5.17967	7.27290	134.6
8.0187	86.9534	2.82	0.06	10.00	-20.00	7.326	5.18157	7.27557	129.0
8.0387	86.9934	2.82	0.06	10.00	-20.00	7.326	5.18348	7.27825	128.2
8.0587	87.0334	2.82	0.06	10.00	-20.00	7.326	5.18539	7.28093	123.0
8.0787	87.0734	2.82	0.06	10.00	-20.00	7.326	5.18729	7.28361	118.8
8.0987	87.1134	2.82	0.06	10.00	-20.00	7.326	5.18920	7.28628	116.4
8.1187	87.1534	2.82	0.06	10.00	-20.00	7.326	5.19110	7.28896	115.0
8.1387	87.1934	2.82	0.06	10.00	-20.00	7.326	5.19301	7.29163	111.0
8.1587	87.2334	2.82	0.06	10.00	-20.00	7.326	5.19491	7.29430	103.8
8.1787	87.2734	2.82	0.06	10.00	-20.00	7.326	5.19681	7.29697	101.6
8.1987	87.3134	2.82	0.06	10.00	-20.00	7.326	5.19872	7.29964	97.2
8.2187	87.3534	2.82	0.06	10.00	-20.00	7.326	5.20062	7.30231	98.0
8.2387	87.3934	2.82	0.06	10.00	-20.00	7.326	5.20252	7.30498	95.1
8.2587	87.4334	2.82	0.06	10.00	-20.00	7.326	5.20442	7.30765	92.0
8.2787	87.4734	2.82	0.06	10.00	-20.00	7.326	5.20632	7.31032	91.4
8.2987	87.5134	2.82	0.06	10.00	-20.00	7.326	5.20822	7.31299	85.2
8.3187	87.5534	2.82	0.06	10.00	-20.00	7.326	5.21012	7.31565	85.9
8.3387	87.5934	2.82	0.06	10.00	-20.00	7.326	5.21201	7.31832	85.2
8.3587	87.6334	2.82	0.06	10.00	-20.00	7.326	5.21391	7.32098	81.4
8.3787	87.6734	2.82	0.06	10.00	-20.00	7.326	5.21581	7.32364	79.5
8.3987	87.7134	2.82	0.06	10.00	-20.00	7.326	5.21770	7.32630	76.2
8.4187	87.7534	2.82	0.06	10.00	-20.00	7.326	5.21960	7.32897	74.7
8.4387	87.7934	2.82	0.06	10.00	-20.00	7.326	5.22149	7.33162	73.5
8.4587	87.8334	2.82	0.06	10.00	-20.00	7.326	5.22339	7.33428	72.4
8.4787	87.8734	2.82	0.06	10.00	-20.00	7.326	5.22528	7.33694	67.5
8.4987	87.9134	2.82	0.06	10.00	-20.00	7.326	5.22717	7.33960	64.1
8.5187	87.9534	2.82	0.06	10.00	-20.00	7.326	5.22906	7.34226	61.4
8.5387	87.9934	2.82	0.06	10.00	-20.00	7.326	5.23096	7.34491	74.0
8.5587	88.0334	2.82	0.06	10.00	-20.00	7.326	5.23285	7.34757	585.8
8.5787	88.0734	2.82	0.06	10.00	-20.00	7.326	5.23474	7.35022	729.4
8.5987	88.1134	2.82	0.06	10.00	-20.00	7.326	5.23663	7.35287	110.1
8.6187	88.1534	2.82	0.06	10.00	-20.00	7.326	5.23852	7.35553	12.2
8.6387	88.1934	2.82	0.06	10.00	-20.00	7.326	5.24040	7.35818	5.0
8.6587	88.2334	2.82	0.06	10.00	-20.00	7.326	5.24229	7.36083	3.8
8.6787	88.2734	2.82	0.06	10.00	-20.00	7.326	5.24418	7.36348	2.5
8.6987	88.3134	2.82	0.06	10.00	-20.00	7.326	5.24606	7.36613	2.4
8.7187	88.3534	2.82	0.06	10.00	-20.00	7.326	5.24795	7.36877	2.4
8.7387	88.3934	2.82	0.06	10.00	-20.00	7.326	5.24983	7.37142	2.0
8.7587	88.4334	2.82	0.06	10.00	-20.00	7.326	5.25172	7.37407	1.6
8.7787	88.4734	2.82	0.06	10.00	-20.00	7.326	5.25360	7.37671	1.9
8.7987	88.5134	2.82	0.06	10.00	-20.00	7.326	5.25549	7.37936	1.7
8.8187	88.5534	2.82	0.06	10.00	-20.00	7.326	5.25737	7.38200	1.6
8.8387	88.5934	2.82	0.06	10.00	-20.00	7.326	5.25925	7.38464	1.5
8.8587	88.6334	2.82	0.06	10.00	-20.00	7.326	5.26113	7.38728	1.5
8.8787	88.6734	2.82	0.06	10.00	-20.00	7.326	5.26301	7.38992	1.5
8.8987	88.7134	2.82	0.06	10.00	-20.00	7.326	5.26489	7.39256	1.2
8.9187	88.7534	2.82	0.06	10.00	-20.00	7.326	5.26677	7.39520	1.6
8.9387	88.7934	2.82	0.06	10.00	-20.00	7.326	5.26865	7.39784	1.5
8.9587	88.8334	2.82	0.06	10.00	-20.00	7.326	5.27053	7.40047	1.7
8.9787	88.8734	2.82	0.06	10.00	-20.00	7.326	5.27240	7.40311	1.5
8.9987	88.9134	2.82	0.06	10.00	-20.00	7.326	5.27428	7.40575	1.7
9.0187	88.9534	2.82	0.06	10.00	-20.00	7.326	5.27616	7.40838	1.1
9.0387	88.9934	2.82	0.06	10.00	-20.00	7.326	5.27803	7.41101	1.5
9.0587	89.0334	2.82	0.06	10.00	-20.00	7.326	5.27991	7.41365	1.4