File: Data/113xx/Omega2Theta/2.0deg-2.0deg-rsm-3h10m_11354-annealed_224_w_000-100.dat
# filename: 2.0deg-2.0deg-rsm-3h10m_11354-annealed_224.dat
# reflection: (004)
# type: Projection of 100 omega2theta scans
# x-axis: omega2theta
#
# Omega	2Theta	Phi  	Chi   	X    	Y    	Z    	q_para	q_perp	Intensity
# [deg]	[deg] 	[deg]	[deg] 	[mm] 	[mm] 	[mm] 	[nm-1]	[nm-1]	[counts/s]
7.7951	85.0742	-0.10	0.10	0.00	-22.75	7.333	5.00154	7.21183	1.1
7.8151	85.1142	-0.10	0.10	0.00	-22.75	7.333	5.00344	7.21458	1.3
7.8351	85.1542	-0.10	0.10	0.00	-22.75	7.333	5.00534	7.21732	1.4
7.8551	85.1942	-0.10	0.10	0.00	-22.75	7.333	5.00724	7.22006	1.2
7.8751	85.2342	-0.10	0.10	0.00	-22.75	7.333	5.00914	7.22280	1.3
7.8951	85.2742	-0.10	0.10	0.00	-22.75	7.333	5.01104	7.22554	1.3
7.9151	85.3142	-0.10	0.10	0.00	-22.75	7.333	5.01294	7.22828	1.4
7.9351	85.3542	-0.10	0.10	0.00	-22.75	7.333	5.01484	7.23102	1.6
7.9551	85.3942	-0.10	0.10	0.00	-22.75	7.333	5.01674	7.23375	1.7
7.9751	85.4342	-0.10	0.10	0.00	-22.75	7.333	5.01864	7.23649	1.5
7.9951	85.4742	-0.10	0.10	0.00	-22.75	7.333	5.02053	7.23923	1.6
8.0151	85.5142	-0.10	0.10	0.00	-22.75	7.333	5.02243	7.24196	1.5
8.0351	85.5542	-0.10	0.10	0.00	-22.75	7.333	5.02432	7.24469	1.6
8.0551	85.5942	-0.10	0.10	0.00	-22.75	7.333	5.02622	7.24743	1.6
8.0751	85.6342	-0.10	0.10	0.00	-22.75	7.333	5.02811	7.25016	1.6
8.0951	85.6742	-0.10	0.10	0.00	-22.75	7.333	5.03001	7.25289	1.5
8.1151	85.7142	-0.10	0.10	0.00	-22.75	7.333	5.03190	7.25562	1.8
8.1351	85.7542	-0.10	0.10	0.00	-22.75	7.333	5.03379	7.25835	2.2
8.1551	85.7942	-0.10	0.10	0.00	-22.75	7.333	5.03569	7.26108	1.8
8.1751	85.8342	-0.10	0.10	0.00	-22.75	7.333	5.03758	7.26380	2.0
8.1951	85.8742	-0.10	0.10	0.00	-22.75	7.333	5.03947	7.26653	1.9
8.2151	85.9142	-0.10	0.10	0.00	-22.75	7.333	5.04136	7.26926	2.3
8.2351	85.9542	-0.10	0.10	0.00	-22.75	7.333	5.04325	7.27198	2.4
8.2551	85.9942	-0.10	0.10	0.00	-22.75	7.333	5.04514	7.27470	2.7
8.2751	86.0342	-0.10	0.10	0.00	-22.75	7.333	5.04703	7.27743	2.6
8.2951	86.0742	-0.10	0.10	0.00	-22.75	7.333	5.04891	7.28015	2.8
8.3151	86.1142	-0.10	0.10	0.00	-22.75	7.333	5.05080	7.28287	3.5
8.3351	86.1542	-0.10	0.10	0.00	-22.75	7.333	5.05269	7.28559	4.3
8.3551	86.1942	-0.10	0.10	0.00	-22.75	7.333	5.05457	7.28831	4.9
8.3751	86.2342	-0.10	0.10	0.00	-22.75	7.333	5.05646	7.29103	8.5
8.3951	86.2742	-0.10	0.10	0.00	-22.75	7.333	5.05834	7.29375	22.8
8.4151	86.3142	-0.10	0.10	0.00	-22.75	7.333	5.06023	7.29646	173.2
8.4351	86.3542	-0.10	0.10	0.00	-22.75	7.333	5.06211	7.29918	2052.9
8.4551	86.3942	-0.10	0.10	0.00	-22.75	7.333	5.06399	7.30189	1602.3
8.4751	86.4342	-0.10	0.10	0.00	-22.75	7.333	5.06588	7.30461	357.3
8.4951	86.4742	-0.10	0.10	0.00	-22.75	7.333	5.06776	7.30732	192.7
8.5151	86.5142	-0.10	0.10	0.00	-22.75	7.333	5.06964	7.31003	175.0
8.5351	86.5542	-0.10	0.10	0.00	-22.75	7.333	5.07152	7.31275	169.2
8.5551	86.5942	-0.10	0.10	0.00	-22.75	7.333	5.07340	7.31546	168.9
8.5751	86.6342	-0.10	0.10	0.00	-22.75	7.333	5.07528	7.31817	173.0
8.5951	86.6742	-0.10	0.10	0.00	-22.75	7.333	5.07716	7.32087	171.1
8.6151	86.7142	-0.10	0.10	0.00	-22.75	7.333	5.07904	7.32358	174.3
8.6351	86.7542	-0.10	0.10	0.00	-22.75	7.333	5.08091	7.32629	168.8
8.6551	86.7942	-0.10	0.10	0.00	-22.75	7.333	5.08279	7.32899	160.6
8.6751	86.8342	-0.10	0.10	0.00	-22.75	7.333	5.08467	7.33170	152.8
8.6951	86.8742	-0.10	0.10	0.00	-22.75	7.333	5.08654	7.33440	147.1
8.7151	86.9142	-0.10	0.10	0.00	-22.75	7.333	5.08842	7.33711	143.0
8.7351	86.9542	-0.10	0.10	0.00	-22.75	7.333	5.09029	7.33981	133.0
8.7551	86.9942	-0.10	0.10	0.00	-22.75	7.333	5.09216	7.34251	134.9
8.7751	87.0342	-0.10	0.10	0.00	-22.75	7.333	5.09404	7.34521	128.4
8.7951	87.0742	-0.10	0.10	0.00	-22.75	7.333	5.09591	7.34791	129.3
8.8151	87.1142	-0.10	0.10	0.00	-22.75	7.333	5.09778	7.35061	127.2
8.8351	87.1542	-0.10	0.10	0.00	-22.75	7.333	5.09965	7.35331	122.9
8.8551	87.1942	-0.10	0.10	0.00	-22.75	7.333	5.10152	7.35601	117.2
8.8751	87.2342	-0.10	0.10	0.00	-22.75	7.333	5.10339	7.35870	112.5
8.8951	87.2742	-0.10	0.10	0.00	-22.75	7.333	5.10526	7.36140	109.9
8.9151	87.3142	-0.10	0.10	0.00	-22.75	7.333	5.10713	7.36409	106.4
8.9351	87.3542	-0.10	0.10	0.00	-22.75	7.333	5.10900	7.36679	106.7
8.9551	87.3942	-0.10	0.10	0.00	-22.75	7.333	5.11086	7.36948	106.0
8.9751	87.4342	-0.10	0.10	0.00	-22.75	7.333	5.11273	7.37217	101.5
8.9951	87.4742	-0.10	0.10	0.00	-22.75	7.333	5.11460	7.37486	93.4
9.0151	87.5142	-0.10	0.10	0.00	-22.75	7.333	5.11646	7.37755	93.1
9.0351	87.5542	-0.10	0.10	0.00	-22.75	7.333	5.11833	7.38024	93.6
9.0551	87.5942	-0.10	0.10	0.00	-22.75	7.333	5.12019	7.38293	91.3
9.0751	87.6342	-0.10	0.10	0.00	-22.75	7.333	5.12206	7.38562	90.8
9.0951	87.6742	-0.10	0.10	0.00	-22.75	7.333	5.12392	7.38830	87.3
9.1151	87.7142	-0.10	0.10	0.00	-22.75	7.333	5.12578	7.39099	82.9
9.1351	87.7542	-0.10	0.10	0.00	-22.75	7.333	5.12764	7.39367	81.3
9.1551	87.7942	-0.10	0.10	0.00	-22.75	7.333	5.12950	7.39636	81.0
9.1751	87.8342	-0.10	0.10	0.00	-22.75	7.333	5.13137	7.39904	77.2
9.1951	87.8742	-0.10	0.10	0.00	-22.75	7.333	5.13322	7.40172	74.8
9.2151	87.9142	-0.10	0.10	0.00	-22.75	7.333	5.13508	7.40440	71.6
9.2351	87.9542	-0.10	0.10	0.00	-22.75	7.333	5.13694	7.40708	69.4
9.2551	87.9942	-0.10	0.10	0.00	-22.75	7.333	5.13880	7.40976	90.3
9.2751	88.0342	-0.10	0.10	0.00	-22.75	7.333	5.14066	7.41244	1052.3
9.2951	88.0742	-0.10	0.10	0.00	-22.75	7.333	5.14252	7.41512	1089.3
9.3151	88.1142	-0.10	0.10	0.00	-22.75	7.333	5.14437	7.41779	143.4
9.3351	88.1542	-0.10	0.10	0.00	-22.75	7.333	5.14623	7.42047	12.8
9.3551	88.1942	-0.10	0.10	0.00	-22.75	7.333	5.14808	7.42314	6.5
9.3751	88.2342	-0.10	0.10	0.00	-22.75	7.333	5.14994	7.42581	4.2
9.3951	88.2742	-0.10	0.10	0.00	-22.75	7.333	5.15179	7.42849	2.7
9.4151	88.3142	-0.10	0.10	0.00	-22.75	7.333	5.15364	7.43116	2.2
9.4351	88.3542	-0.10	0.10	0.00	-22.75	7.333	5.15550	7.43383	2.6
9.4551	88.3942	-0.10	0.10	0.00	-22.75	7.333	5.15735	7.43650	2.1
9.4751	88.4342	-0.10	0.10	0.00	-22.75	7.333	5.15920	7.43917	2.1
9.4951	88.4742	-0.10	0.10	0.00	-22.75	7.333	5.16105	7.44184	1.7
9.5151	88.5142	-0.10	0.10	0.00	-22.75	7.333	5.16290	7.44451	1.9
9.5351	88.5542	-0.10	0.10	0.00	-22.75	7.333	5.16475	7.44717	1.7
9.5551	88.5942	-0.10	0.10	0.00	-22.75	7.333	5.16660	7.44984	1.7
9.5751	88.6342	-0.10	0.10	0.00	-22.75	7.333	5.16844	7.45250	1.9
9.5951	88.6742	-0.10	0.10	0.00	-22.75	7.333	5.17029	7.45517	1.6
9.6151	88.7142	-0.10	0.10	0.00	-22.75	7.333	5.17214	7.45783	1.5
9.6351	88.7542	-0.10	0.10	0.00	-22.75	7.333	5.17398	7.46049	1.5
9.6551	88.7942	-0.10	0.10	0.00	-22.75	7.333	5.17583	7.46315	1.5
9.6751	88.8342	-0.10	0.10	0.00	-22.75	7.333	5.17767	7.46581	1.6
9.6951	88.8742	-0.10	0.10	0.00	-22.75	7.333	5.17952	7.46847	1.8
9.7151	88.9142	-0.10	0.10	0.00	-22.75	7.333	5.18136	7.47113	1.6
9.7351	88.9542	-0.10	0.10	0.00	-22.75	7.333	5.18320	7.47379	1.4
9.7551	88.9942	-0.10	0.10	0.00	-22.75	7.333	5.18505	7.47644	1.1
9.7751	89.0342	-0.10	0.10	0.00	-22.75	7.333	5.18689	7.47910	1.6