File: Data/113xx/2.0deg-2.0deg-rsm-3h10mins_11354-annealed_224.dat
# filename: /home/lepecvd/lepecvd/11354/xray/2.0deg-2.0deg-rsm-3h10m_11354-E4_224.xrdml
# reflection: ('2', '2', '4')
# type: Area measurement
# x-axis: Omega_2Theta
# y-axis: Omega
#
# Omega	2Theta	Phi  	Chi   	X    	Y    	Z    	q_para	q_perp	Intensity
# [deg]	[deg] 	[deg]	[deg] 	[mm] 	[mm] 	[mm] 	[nm-1]	[nm-1]	[counts/s]
6.7951	85.0742	-0.10	0.10	0.00	-22.75	7.333	5.12690	7.12381	2.0
6.8151	85.1142	-0.10	0.10	0.00	-22.75	7.333	5.12885	7.12652	4.0
6.8351	85.1542	-0.10	0.10	0.00	-22.75	7.333	5.13080	7.12923	0.0
6.8551	85.1942	-0.10	0.10	0.00	-22.75	7.333	5.13275	7.13194	2.0
6.8751	85.2342	-0.10	0.10	0.00	-22.75	7.333	5.13470	7.13465	0.0
6.8951	85.2742	-0.10	0.10	0.00	-22.75	7.333	5.13665	7.13735	2.0
6.9151	85.3142	-0.10	0.10	0.00	-22.75	7.333	5.13859	7.14006	0.0
6.9351	85.3542	-0.10	0.10	0.00	-22.75	7.333	5.14054	7.14276	0.0
6.9551	85.3942	-0.10	0.10	0.00	-22.75	7.333	5.14249	7.14547	4.0
6.9751	85.4342	-0.10	0.10	0.00	-22.75	7.333	5.14443	7.14817	0.0
6.9951	85.4742	-0.10	0.10	0.00	-22.75	7.333	5.14638	7.15087	2.0
7.0151	85.5142	-0.10	0.10	0.00	-22.75	7.333	5.14832	7.15357	0.0
7.0351	85.5542	-0.10	0.10	0.00	-22.75	7.333	5.15026	7.15627	0.0
7.0551	85.5942	-0.10	0.10	0.00	-22.75	7.333	5.15221	7.15897	2.0
7.0751	85.6342	-0.10	0.10	0.00	-22.75	7.333	5.15415	7.16167	2.0
7.0951	85.6742	-0.10	0.10	0.00	-22.75	7.333	5.15609	7.16437	0.0
7.1151	85.7142	-0.10	0.10	0.00	-22.75	7.333	5.15803	7.16707	2.0
7.1351	85.7542	-0.10	0.10	0.00	-22.75	7.333	5.15997	7.16976	2.0
7.1551	85.7942	-0.10	0.10	0.00	-22.75	7.333	5.16191	7.17246	0.0
7.1751	85.8342	-0.10	0.10	0.00	-22.75	7.333	5.16385	7.17515	2.0
7.1951	85.8742	-0.10	0.10	0.00	-22.75	7.333	5.16579	7.17784	2.0
7.2151	85.9142	-0.10	0.10	0.00	-22.75	7.333	5.16773	7.18054	2.0
7.2351	85.9542	-0.10	0.10	0.00	-22.75	7.333	5.16966	7.18323	8.0
7.2551	85.9942	-0.10	0.10	0.00	-22.75	7.333	5.17160	7.18592	2.0
7.2751	86.0342	-0.10	0.10	0.00	-22.75	7.333	5.17353	7.18861	4.0
7.2951	86.0742	-0.10	0.10	0.00	-22.75	7.333	5.17547	7.19130	2.0
7.3151	86.1142	-0.10	0.10	0.00	-22.75	7.333	5.17740	7.19399	4.0
7.3351	86.1542	-0.10	0.10	0.00	-22.75	7.333	5.17934	7.19667	0.0
7.3551	86.1942	-0.10	0.10	0.00	-22.75	7.333	5.18127	7.19936	0.0
7.3751	86.2342	-0.10	0.10	0.00	-22.75	7.333	5.18320	7.20204	2.0
7.3951	86.2742	-0.10	0.10	0.00	-22.75	7.333	5.18514	7.20473	2.0
7.4151	86.3142	-0.10	0.10	0.00	-22.75	7.333	5.18707	7.20741	4.0
7.4351	86.3542	-0.10	0.10	0.00	-22.75	7.333	5.18900	7.21010	0.0
7.4551	86.3942	-0.10	0.10	0.00	-22.75	7.333	5.19093	7.21278	4.0
7.4751	86.4342	-0.10	0.10	0.00	-22.75	7.333	5.19286	7.21546	4.0
7.4951	86.4742	-0.10	0.10	0.00	-22.75	7.333	5.19479	7.21814	6.0
7.5151	86.5142	-0.10	0.10	0.00	-22.75	7.333	5.19671	7.22082	0.0
7.5351	86.5542	-0.10	0.10	0.00	-22.75	7.333	5.19864	7.22350	2.0
7.5551	86.5942	-0.10	0.10	0.00	-22.75	7.333	5.20057	7.22617	2.0
7.5751	86.6342	-0.10	0.10	0.00	-22.75	7.333	5.20249	7.22885	0.0
7.5951	86.6742	-0.10	0.10	0.00	-22.75	7.333	5.20442	7.23153	0.0
7.6151	86.7142	-0.10	0.10	0.00	-22.75	7.333	5.20635	7.23420	4.0
7.6351	86.7542	-0.10	0.10	0.00	-22.75	7.333	5.20827	7.23687	0.0
7.6551	86.7942	-0.10	0.10	0.00	-22.75	7.333	5.21019	7.23955	2.0
7.6751	86.8342	-0.10	0.10	0.00	-22.75	7.333	5.21212	7.24222	2.0
7.6951	86.8742	-0.10	0.10	0.00	-22.75	7.333	5.21404	7.24489	2.0
7.7151	86.9142	-0.10	0.10	0.00	-22.75	7.333	5.21596	7.24756	0.0
7.7351	86.9542	-0.10	0.10	0.00	-22.75	7.333	5.21788	7.25023	2.0
7.7551	86.9942	-0.10	0.10	0.00	-22.75	7.333	5.21980	7.25290	0.0
7.7751	87.0342	-0.10	0.10	0.00	-22.75	7.333	5.22172	7.25557	0.0
7.7951	87.0742	-0.10	0.10	0.00	-22.75	7.333	5.22364	7.25823	4.0
7.8151	87.1142	-0.10	0.10	0.00	-22.75	7.333	5.22556	7.26090	0.0
7.8351	87.1542	-0.10	0.10	0.00	-22.75	7.333	5.22748	7.26356	0.0
7.8551	87.1942	-0.10	0.10	0.00	-22.75	7.333	5.22940	7.26623	0.0
7.8751	87.2342	-0.10	0.10	0.00	-22.75	7.333	5.23131	7.26889	0.0
7.8951	87.2742	-0.10	0.10	0.00	-22.75	7.333	5.23323	7.27155	0.0
7.9151	87.3142	-0.10	0.10	0.00	-22.75	7.333	5.23514	7.27422	0.0
7.9351	87.3542	-0.10	0.10	0.00	-22.75	7.333	5.23706	7.27688	0.0
7.9551	87.3942	-0.10	0.10	0.00	-22.75	7.333	5.23897	7.27954	4.0
7.9751	87.4342	-0.10	0.10	0.00	-22.75	7.333	5.24089	7.28220	2.0
7.9951	87.4742	-0.10	0.10	0.00	-22.75	7.333	5.24280	7.28485	2.0
8.0151	87.5142	-0.10	0.10	0.00	-22.75	7.333	5.24471	7.28751	0.0
8.0351	87.5542	-0.10	0.10	0.00	-22.75	7.333	5.24662	7.29017	0.0
8.0551	87.5942	-0.10	0.10	0.00	-22.75	7.333	5.24853	7.29282	2.0
8.0751	87.6342	-0.10	0.10	0.00	-22.75	7.333	5.25044	7.29548	6.0
8.0951	87.6742	-0.10	0.10	0.00	-22.75	7.333	5.25235	7.29813	2.0
8.1151	87.7142	-0.10	0.10	0.00	-22.75	7.333	5.25426	7.30078	2.0
8.1351	87.7542	-0.10	0.10	0.00	-22.75	7.333	5.25617	7.30343	4.0
8.1551	87.7942	-0.10	0.10	0.00	-22.75	7.333	5.25808	7.30608	0.0
8.1751	87.8342	-0.10	0.10	0.00	-22.75	7.333	5.25999	7.30873	2.0
8.1951	87.8742	-0.10	0.10	0.00	-22.75	7.333	5.26189	7.31138	0.0
8.2151	87.9142	-0.10	0.10	0.00	-22.75	7.333	5.26380	7.31403	0.0
8.2351	87.9542	-0.10	0.10	0.00	-22.75	7.333	5.26570	7.31668	0.0
8.2551	87.9942	-0.10	0.10	0.00	-22.75	7.333	5.26761	7.31933	2.0
8.2751	88.0342	-0.10	0.10	0.00	-22.75	7.333	5.26951	7.32197	2.0
8.2951	88.0742	-0.10	0.10	0.00	-22.75	7.333	5.27142	7.32462	0.0
8.3151	88.1142	-0.10	0.10	0.00	-22.75	7.333	5.27332	7.32726	0.0
8.3351	88.1542	-0.10	0.10	0.00	-22.75	7.333	5.27522	7.32990	0.0
8.3551	88.1942	-0.10	0.10	0.00	-22.75	7.333	5.27712	7.33254	4.0
8.3751	88.2342	-0.10	0.10	0.00	-22.75	7.333	5.27902	7.33519	0.0
8.3951	88.2742	-0.10	0.10	0.00	-22.75	7.333	5.28092	7.33783	0.0
8.4151	88.3142	-0.10	0.10	0.00	-22.75	7.333	5.28282	7.34047	10.0
8.4351	88.3542	-0.10	0.10	0.00	-22.75	7.333	5.28472	7.34310	2.0
8.4551	88.3942	-0.10	0.10	0.00	-22.75	7.333	5.28662	7.34574	2.0
8.4751	88.4342	-0.10	0.10	0.00	-22.75	7.333	5.28852	7.34838	0.0
8.4951	88.4742	-0.10	0.10	0.00	-22.75	7.333	5.29041	7.35101	2.0
8.5151	88.5142	-0.10	0.10	0.00	-22.75	7.333	5.29231	7.35365	2.0
8.5351	88.5542	-0.10	0.10	0.00	-22.75	7.333	5.29421	7.35628	0.0
8.5551	88.5942	-0.10	0.10	0.00	-22.75	7.333	5.29610	7.35892	0.0
8.5751	88.6342	-0.10	0.10	0.00	-22.75	7.333	5.29800	7.36155	0.0
8.5951	88.6742	-0.10	0.10	0.00	-22.75	7.333	5.29989	7.36418	0.0
8.6151	88.7142	-0.10	0.10	0.00	-22.75	7.333	5.30178	7.36681	0.0
8.6351	88.7542	-0.10	0.10	0.00	-22.75	7.333	5.30367	7.36944	0.0
8.6551	88.7942	-0.10	0.10	0.00	-22.75	7.333	5.30557	7.37207	0.0
8.6751	88.8342	-0.10	0.10	0.00	-22.75	7.333	5.30746	7.37469	0.0
8.6951	88.8742	-0.10	0.10	0.00	-22.75	7.333	5.30935	7.37732	0.0
8.7151	88.9142	-0.10	0.10	0.00	-22.75	7.333	5.31124	7.37995	6.0
8.7351	88.9542	-0.10	0.10	0.00	-22.75	7.333	5.31313	7.38257	2.0
8.7551	88.9942	-0.10	0.10	0.00	-22.75	7.333	5.31501	7.38520	2.0
8.7751	89.0342	-0.10	0.10	0.00	-22.75	7.333	5.31690	7.38782	0.0

6.8151	85.0742	-0.10	0.10	0.00	-22.75	7.333	5.12442	7.12560	2.0
6.8351	85.1142	-0.10	0.10	0.00	-22.75	7.333	5.12636	7.12831	0.0
6.8551	85.1542	-0.10	0.10	0.00	-22.75	7.333	5.12831	7.13102	0.0
6.8751	85.1942	-0.10	0.10	0.00	-22.75	7.333	5.13026	7.13373	2.0
6.8951	85.2342	-0.10	0.10	0.00	-22.75	7.333	5.13221	7.13644	2.0
6.9151	85.2742	-0.10	0.10	0.00	-22.75	7.333	5.13416	7.13915	0.0
6.9351	85.3142	-0.10	0.10	0.00	-22.75	7.333	5.13610	7.14185	2.0
6.9551	85.3542	-0.10	0.10	0.00	-22.75	7.333	5.13805	7.14456	2.0
6.9751	85.3942	-0.10	0.10	0.00	-22.75	7.333	5.13999	7.14726	0.0
6.9951	85.4342	-0.10	0.10	0.00	-22.75	7.333	5.14194	7.14997	4.0
7.0151	85.4742	-0.10	0.10	0.00	-22.75	7.333	5.14388	7.15267	2.0
7.0351	85.5142	-0.10	0.10	0.00	-22.75	7.333	5.14582	7.15537	0.0
7.0551	85.5542	-0.10	0.10	0.00	-22.75	7.333	5.14777	7.15807	4.0
7.0751	85.5942	-0.10	0.10	0.00	-22.75	7.333	5.14971	7.16077	0.0
7.0951	85.6342	-0.10	0.10	0.00	-22.75	7.333	5.15165	7.16347	2.0
7.1151	85.6742	-0.10	0.10	0.00	-22.75	7.333	5.15359	7.16617	0.0
7.1351	85.7142	-0.10	0.10	0.00	-22.75	7.333	5.15553	7.16887	0.0
7.1551	85.7542	-0.10	0.10	0.00	-22.75	7.333	5.15747	7.17156	0.0
7.1751	85.7942	-0.10	0.10	0.00	-22.75	7.333	5.15941	7.17426	0.0
7.1951	85.8342	-0.10	0.10	0.00	-22.75	7.333	5.16134	7.17695	0.0
7.2151	85.8742	-0.10	0.10	0.00	-22.75	7.333	5.16328	7.17965	2.0
7.2351	85.9142	-0.10	0.10	0.00	-22.75	7.333	5.16522	7.18234	2.0
7.2551	85.9542	-0.10	0.10	0.00	-22.75	7.333	5.16715	7.18503	4.0
7.2751	85.9942	-0.10	0.10	0.00	-22.75	7.333	5.16909	7.18772	2.0
7.2951	86.0342	-0.10	0.10	0.00	-22.75	7.333	5.17102	7.19041	0.0
7.3151	86.0742	-0.10	0.10	0.00	-22.75	7.333	5.17296	7.19310	2.0
7.3351	86.1142	-0.10	0.10	0.00	-22.75	7.333	5.17489	7.19579	0.0
7.3551	86.1542	-0.10	0.10	0.00	-22.75	7.333	5.17683	7.19848	2.0
7.3751	86.1942	-0.10	0.10	0.00	-22.75	7.333	5.17876	7.20117	2.0
7.3951	86.2342	-0.10	0.10	0.00	-22.75	7.333	5.18069	7.20385	0.0
7.4151	86.2742	-0.10	0.10	0.00	-22.75	7.333	5.18262	7.20654	2.0
7.4351	86.3142	-0.10	0.10	0.00	-22.75	7.333	5.18455	7.20922	0.0
7.4551	86.3542	-0.10	0.10	0.00	-22.75	7.333	5.18648	7.21191	2.0
7.4751	86.3942	-0.10	0.10	0.00	-22.75	7.333	5.18841	7.21459	2.0
7.4951	86.4342	-0.10	0.10	0.00	-22.75	7.333	5.19034	7.21727	2.0
7.5151	86.4742	-0.10	0.10	0.00	-22.75	7.333	5.19227	7.21995	2.0
7.5351	86.5142	-0.10	0.10	0.00	-22.75	7.333	5.19419	7.22263	2.0
7.5551	86.5542	-0.10	0.10	0.00	-22.75	7.333	5.19612	7.22531	2.0
7.5751	86.5942	-0.10	0.10	0.00	-22.75	7.333	5.19805	7.22799	2.0
7.5951	86.6342	-0.10	0.10	0.00	-22.75	7.333	5.19997	7.23067	2.0
7.6151	86.6742	-0.10	0.10	0.00	-22.75	7.333	5.20190	7.23334	4.0
7.6351	86.7142	-0.10	0.10	0.00	-22.75	7.333	5.20382	7.23602	2.0
7.6551	86.7542	-0.10	0.10	0.00	-22.75	7.333	5.20574	7.23869	0.0
7.6751	86.7942	-0.10	0.10	0.00	-22.75	7.333	5.20767	7.24137	0.0
7.6951	86.8342	-0.10	0.10	0.00	-22.75	7.333	5.20959	7.24404	0.0
7.7151	86.8742	-0.10	0.10	0.00	-22.75	7.333	5.21151	7.24671	0.0
7.7351	86.9142	-0.10	0.10	0.00	-22.75	7.333	5.21343	7.24938	2.0
7.7551	86.9542	-0.10	0.10	0.00	-22.75	7.333	5.21535	7.25205	4.0
7.7751	86.9942	-0.10	0.10	0.00	-22.75	7.333	5.21727	7.25472	0.0
7.7951	87.0342	-0.10	0.10	0.00	-22.75	7.333	5.21919	7.25739	4.0
7.8151	87.0742	-0.10	0.10	0.00	-22.75	7.333	5.22111	7.26006	0.0
7.8351	87.1142	-0.10	0.10	0.00	-22.75	7.333	5.22303	7.26272	2.0
7.8551	87.1542	-0.10	0.10	0.00	-22.75	7.333	5.22494	7.26539	0.0
7.8751	87.1942	-0.10	0.10	0.00	-22.75	7.333	5.22686	7.26805	0.0
7.8951	87.2342	-0.10	0.10	0.00	-22.75	7.333	5.22877	7.27072	2.0
7.9151	87.2742	-0.10	0.10	0.00	-22.75	7.333	5.23069	7.27338	4.0
7.9351	87.3142	-0.10	0.10	0.00	-22.75	7.333	5.23260	7.27604	2.0
7.9551	87.3542	-0.10	0.10	0.00	-22.75	7.333	5.23452	7.27870	4.0
7.9751	87.3942	-0.10	0.10	0.00	-22.75	7.333	5.23643	7.28136	6.0
7.9951	87.4342	-0.10	0.10	0.00	-22.75	7.333	5.23834	7.28402	2.0
8.0151	87.4742	-0.10	0.10	0.00	-22.75	7.333	5.24026	7.28668	2.0
8.0351	87.5142	-0.10	0.10	0.00	-22.75	7.333	5.24217	7.28934	0.0
8.0551	87.5542	-0.10	0.10	0.00	-22.75	7.333	5.24408	7.29200	2.0
8.0751	87.5942	-0.10	0.10	0.00	-22.75	7.333	5.24599	7.29465	2.0
8.0951	87.6342	-0.10	0.10	0.00	-22.75	7.333	5.24790	7.29731	6.0
8.1151	87.6742	-0.10	0.10	0.00	-22.75	7.333	5.24981	7.29996	2.0
8.1351	87.7142	-0.10	0.10	0.00	-22.75	7.333	5.25171	7.30262	0.0
8.1551	87.7542	-0.10	0.10	0.00	-22.75	7.333	5.25362	7.30527	0.0
8.1751	87.7942	-0.10	0.10	0.00	-22.75	7.333	5.25553	7.30792	2.0
8.1951	87.8342	-0.10	0.10	0.00	-22.75	7.333	5.25744	7.31057	0.0
8.2151	87.8742	-0.10	0.10	0.00	-22.75	7.333	5.25934	7.31322	4.0
8.2351	87.9142	-0.10	0.10	0.00	-22.75	7.333	5.26125	7.31587	0.0
8.2551	87.9542	-0.10	0.10	0.00	-22.75	7.333	5.26315	7.31852	0.0
8.2751	87.9942	-0.10	0.10	0.00	-22.75	7.333	5.26505	7.32116	6.0
8.2951	88.0342	-0.10	0.10	0.00	-22.75	7.333	5.26696	7.32381	0.0
8.3151	88.0742	-0.10	0.10	0.00	-22.75	7.333	5.26886	7.32646	0.0
8.3351	88.1142	-0.10	0.10	0.00	-22.75	7.333	5.27076	7.32910	0.0
8.3551	88.1542	-0.10	0.10	0.00	-22.75	7.333	5.27266	7.33174	0.0
8.3751	88.1942	-0.10	0.10	0.00	-22.75	7.333	5.27456	7.33439	4.0
8.3951	88.2342	-0.10	0.10	0.00	-22.75	7.333	5.27646	7.33703	0.0
8.4151	88.2742	-0.10	0.10	0.00	-22.75	7.333	5.27836	7.33967	0.0
8.4351	88.3142	-0.10	0.10	0.00	-22.75	7.333	5.28026	7.34231	0.0
8.4551	88.3542	-0.10	0.10	0.00	-22.75	7.333	5.28216	7.34495	4.0
8.4751	88.3942	-0.10	0.10	0.00	-22.75	7.333	5.28406	7.34759	0.0
8.4951	88.4342	-0.10	0.10	0.00	-22.75	7.333	5.28595	7.35022	2.0
8.5151	88.4742	-0.10	0.10	0.00	-22.75	7.333	5.28785	7.35286	0.0
8.5351	88.5142	-0.10	0.10	0.00	-22.75	7.333	5.28974	7.35550	0.0
8.5551	88.5542	-0.10	0.10	0.00	-22.75	7.333	5.29164	7.35813	0.0
8.5751	88.5942	-0.10	0.10	0.00	-22.75	7.333	5.29353	7.36076	8.0
8.5951	88.6342	-0.10	0.10	0.00	-22.75	7.333	5.29543	7.36340	2.0
8.6151	88.6742	-0.10	0.10	0.00	-22.75	7.333	5.29732	7.36603	2.0
8.6351	88.7142	-0.10	0.10	0.00	-22.75	7.333	5.29921	7.36866	0.0
8.6551	88.7542	-0.10	0.10	0.00	-22.75	7.333	5.30110	7.37129	0.0
8.6751	88.7942	-0.10	0.10	0.00	-22.75	7.333	5.30299	7.37392	0.0
8.6951	88.8342	-0.10	0.10	0.00	-22.75	7.333	5.30488	7.37655	2.0
8.7151	88.8742	-0.10	0.10	0.00	-22.75	7.333	5.30677	7.37917	2.0
8.7351	88.9142	-0.10	0.10	0.00	-22.75	7.333	5.30866	7.38180	2.0
8.7551	88.9542	-0.10	0.10	0.00	-22.75	7.333	5.31055	7.38443	2.0
8.7751	88.9942	-0.10	0.10	0.00	-22.75	7.333	5.31244	7.38705	2.0
8.7951	89.0342	-0.10	0.10	0.00	-22.75	7.333	5.31432	7.38967	0.0

6.8351	85.0742	-0.10	0.10	0.00	-22.75	7.333	5.12193	7.12739	0.0
6.8551	85.1142	-0.10	0.10	0.00	-22.75	7.333	5.12388	7.13010	4.0
6.8751	85.1542	-0.10	0.10	0.00	-22.75	7.333	5.12582	7.13281	0.0
6.8951	85.1942	-0.10	0.10	0.00	-22.75	7.333	5.12777	7.13552	0.0
6.9151	85.2342	-0.10	0.10	0.00	-22.75	7.333	5.12972	7.13823	0.0
6.9351	85.2742	-0.10	0.10	0.00	-22.75	7.333	5.13166	7.14094	0.0
6.9551	85.3142	-0.10	0.10	0.00	-22.75	7.333	5.13361	7.14365	0.0
6.9751	85.3542	-0.10	0.10	0.00	-22.75	7.333	5.13555	7.14635	0.0
6.9951	85.3942	-0.10	0.10	0.00	-22.75	7.333	5.13750	7.14906	2.0
7.0151	85.4342	-0.10	0.10	0.00	-22.75	7.333	5.13944	7.15176	0.0
7.0351	85.4742	-0.10	0.10	0.00	-22.75	7.333	5.14138	7.15446	0.0
7.0551	85.5142	-0.10	0.10	0.00	-22.75	7.333	5.14332	7.15717	0.0
7.0751	85.5542	-0.10	0.10	0.00	-22.75	7.333	5.14527	7.15987	0.0
7.0951	85.5942	-0.10	0.10	0.00	-22.75	7.333	5.14721	7.16257	2.0
7.1151	85.6342	-0.10	0.10	0.00	-22.75	7.333	5.14915	7.16527	0.0
7.1351	85.6742	-0.10	0.10	0.00	-22.75	7.333	5.15109	7.16797	2.0
7.1551	85.7142	-0.10	0.10	0.00	-22.75	7.333	5.15303	7.17067	0.0
7.1751	85.7542	-0.10	0.10	0.00	-22.75	7.333	5.15496	7.17336	0.0
7.1951	85.7942	-0.10	0.10	0.00	-22.75	7.333	5.15690	7.17606	2.0
7.2151	85.8342	-0.10	0.10	0.00	-22.75	7.333	5.15884	7.17875	6.0
7.2351	85.8742	-0.10	0.10	0.00	-22.75	7.333	5.16078	7.18145	0.0
7.2551	85.9142	-0.10	0.10	0.00	-22.75	7.333	5.16271	7.18414	0.0
7.2751	85.9542	-0.10	0.10	0.00	-22.75	7.333	5.16465	7.18684	2.0
7.2951	85.9942	-0.10	0.10	0.00	-22.75	7.333	5.16658	7.18953	0.0
7.3151	86.0342	-0.10	0.10	0.00	-22.75	7.333	5.16851	7.19222	0.0
7.3351	86.0742	-0.10	0.10	0.00	-22.75	7.333	5.17045	7.19491	0.0
7.3551	86.1142	-0.10	0.10	0.00	-22.75	7.333	5.17238	7.19760	0.0
7.3751	86.1542	-0.10	0.10	0.00	-22.75	7.333	5.17431	7.20029	2.0
7.3951	86.1942	-0.10	0.10	0.00	-22.75	7.333	5.17624	7.20297	2.0
7.4151	86.2342	-0.10	0.10	0.00	-22.75	7.333	5.17817	7.20566	2.0
7.4351	86.2742	-0.10	0.10	0.00	-22.75	7.333	5.18010	7.20835	0.0
7.4551	86.3142	-0.10	0.10	0.00	-22.75	7.333	5.18203	7.21103	0.0
7.4751	86.3542	-0.10	0.10	0.00	-22.75	7.333	5.18396	7.21372	2.0
7.4951	86.3942	-0.10	0.10	0.00	-22.75	7.333	5.18589	7.21640	2.0
7.5151	86.4342	-0.10	0.10	0.00	-22.75	7.333	5.18782	7.21908	0.0
7.5351	86.4742	-0.10	0.10	0.00	-22.75	7.333	5.18975	7.22176	2.0
7.5551	86.5142	-0.10	0.10	0.00	-22.75	7.333	5.19167	7.22444	0.0
7.5751	86.5542	-0.10	0.10	0.00	-22.75	7.333	5.19360	7.22712	2.0
7.5951	86.5942	-0.10	0.10	0.00	-22.75	7.333	5.19552	7.22980	0.0
7.6151	86.6342	-0.10	0.10	0.00	-22.75	7.333	5.19745	7.23248	2.0
7.6351	86.6742	-0.10	0.10	0.00	-22.75	7.333	5.19937	7.23516	0.0
7.6551	86.7142	-0.10	0.10	0.00	-22.75	7.333	5.20129	7.23783	0.0
7.6751	86.7542	-0.10	0.10	0.00	-22.75	7.333	5.20322	7.24051	2.0
7.6951	86.7942	-0.10	0.10	0.00	-22.75	7.333	5.20514	7.24318	0.0
7.7151	86.8342	-0.10	0.10	0.00	-22.75	7.333	5.20706	7.24586	2.0
7.7351	86.8742	-0.10	0.10	0.00	-22.75	7.333	5.20898	7.24853	2.0
7.7551	86.9142	-0.10	0.10	0.00	-22.75	7.333	5.21090	7.25120	2.0
7.7751	86.9542	-0.10	0.10	0.00	-22.75	7.333	5.21282	7.25387	6.0
7.7951	86.9942	-0.10	0.10	0.00	-22.75	7.333	5.21474	7.25654	2.0
7.8151	87.0342	-0.10	0.10	0.00	-22.75	7.333	5.21666	7.25921	2.0
7.8351	87.0742	-0.10	0.10	0.00	-22.75	7.333	5.21857	7.26188	0.0
7.8551	87.1142	-0.10	0.10	0.00	-22.75	7.333	5.22049	7.26455	0.0
7.8751	87.1542	-0.10	0.10	0.00	-22.75	7.333	5.22241	7.26721	2.0
7.8951	87.1942	-0.10	0.10	0.00	-22.75	7.333	5.22432	7.26988	0.0
7.9151	87.2342	-0.10	0.10	0.00	-22.75	7.333	5.22624	7.27254	0.0
7.9351	87.2742	-0.10	0.10	0.00	-22.75	7.333	5.22815	7.27521	0.0
7.9551	87.3142	-0.10	0.10	0.00	-22.75	7.333	5.23006	7.27787	2.0
7.9751	87.3542	-0.10	0.10	0.00	-22.75	7.333	5.23198	7.28053	0.0
7.9951	87.3942	-0.10	0.10	0.00	-22.75	7.333	5.23389	7.28319	0.0
8.0151	87.4342	-0.10	0.10	0.00	-22.75	7.333	5.23580	7.28585	0.0
8.0351	87.4742	-0.10	0.10	0.00	-22.75	7.333	5.23771	7.28851	0.0
8.0551	87.5142	-0.10	0.10	0.00	-22.75	7.333	5.23962	7.29117	4.0
8.0751	87.5542	-0.10	0.10	0.00	-22.75	7.333	5.24153	7.29383	0.0
8.0951	87.5942	-0.10	0.10	0.00	-22.75	7.333	5.24344	7.29648	0.0
8.1151	87.6342	-0.10	0.10	0.00	-22.75	7.333	5.24535	7.29914	2.0
[...]
10.0951	87.7142	-0.10	0.10	0.00	-22.75	7.333	4.99888	7.47796	0.0
10.1151	87.7542	-0.10	0.10	0.00	-22.75	7.333	5.00070	7.48068	0.0
10.1351	87.7942	-0.10	0.10	0.00	-22.75	7.333	5.00251	7.48339	6.0
10.1551	87.8342	-0.10	0.10	0.00	-22.75	7.333	5.00433	7.48611	0.0
10.1751	87.8742	-0.10	0.10	0.00	-22.75	7.333	5.00614	7.48882	0.0
10.1951	87.9142	-0.10	0.10	0.00	-22.75	7.333	5.00795	7.49153	0.0
10.2151	87.9542	-0.10	0.10	0.00	-22.75	7.333	5.00976	7.49424	2.0
10.2351	87.9942	-0.10	0.10	0.00	-22.75	7.333	5.01158	7.49696	2.0
10.2551	88.0342	-0.10	0.10	0.00	-22.75	7.333	5.01339	7.49966	0.0
10.2751	88.0742	-0.10	0.10	0.00	-22.75	7.333	5.01520	7.50237	0.0
10.2951	88.1142	-0.10	0.10	0.00	-22.75	7.333	5.01701	7.50508	0.0
10.3151	88.1542	-0.10	0.10	0.00	-22.75	7.333	5.01882	7.50779	2.0
10.3351	88.1942	-0.10	0.10	0.00	-22.75	7.333	5.02063	7.51049	0.0
10.3551	88.2342	-0.10	0.10	0.00	-22.75	7.333	5.02244	7.51320	2.0
10.3751	88.2742	-0.10	0.10	0.00	-22.75	7.333	5.02424	7.51590	0.0
10.3951	88.3142	-0.10	0.10	0.00	-22.75	7.333	5.02605	7.51861	0.0
10.4151	88.3542	-0.10	0.10	0.00	-22.75	7.333	5.02786	7.52131	6.0
10.4351	88.3942	-0.10	0.10	0.00	-22.75	7.333	5.02966	7.52401	0.0
10.4551	88.4342	-0.10	0.10	0.00	-22.75	7.333	5.03147	7.52671	2.0
10.4751	88.4742	-0.10	0.10	0.00	-22.75	7.333	5.03327	7.52941	0.0
10.4951	88.5142	-0.10	0.10	0.00	-22.75	7.333	5.03508	7.53211	0.0
10.5151	88.5542	-0.10	0.10	0.00	-22.75	7.333	5.03688	7.53481	0.0
10.5351	88.5942	-0.10	0.10	0.00	-22.75	7.333	5.03868	7.53751	2.0
10.5551	88.6342	-0.10	0.10	0.00	-22.75	7.333	5.04049	7.54020	4.0
10.5751	88.6742	-0.10	0.10	0.00	-22.75	7.333	5.04229	7.54290	0.0
10.5951	88.7142	-0.10	0.10	0.00	-22.75	7.333	5.04409	7.54559	2.0
10.6151	88.7542	-0.10	0.10	0.00	-22.75	7.333	5.04589	7.54828	4.0
10.6351	88.7942	-0.10	0.10	0.00	-22.75	7.333	5.04769	7.55098	0.0
10.6551	88.8342	-0.10	0.10	0.00	-22.75	7.333	5.04949	7.55367	4.0
10.6751	88.8742	-0.10	0.10	0.00	-22.75	7.333	5.05129	7.55636	0.0
10.6951	88.9142	-0.10	0.10	0.00	-22.75	7.333	5.05308	7.55905	0.0
10.7151	88.9542	-0.10	0.10	0.00	-22.75	7.333	5.05488	7.56174	2.0
10.7351	88.9942	-0.10	0.10	0.00	-22.75	7.333	5.05668	7.56442	0.0
10.7551	89.0342	-0.10	0.10	0.00	-22.75	7.333	5.05847	7.56711	0.0

8.7951	85.0742	-0.10	0.10	0.00	-22.75	7.333	4.87516	7.29840	0.0
8.8151	85.1142	-0.10	0.10	0.00	-22.75	7.333	4.87702	7.30118	0.0
8.8351	85.1542	-0.10	0.10	0.00	-22.75	7.333	4.87887	7.30395	0.0
8.8551	85.1942	-0.10	0.10	0.00	-22.75	7.333	4.88072	7.30673	2.0
8.8751	85.2342	-0.10	0.10	0.00	-22.75	7.333	4.88258	7.30950	2.0
8.8951	85.2742	-0.10	0.10	0.00	-22.75	7.333	4.88443	7.31227	0.0
8.9151	85.3142	-0.10	0.10	0.00	-22.75	7.333	4.88628	7.31505	2.0
8.9351	85.3542	-0.10	0.10	0.00	-22.75	7.333	4.88813	7.31782	0.0
8.9551	85.3942	-0.10	0.10	0.00	-22.75	7.333	4.88998	7.32059	0.0
8.9751	85.4342	-0.10	0.10	0.00	-22.75	7.333	4.89183	7.32336	4.0
8.9951	85.4742	-0.10	0.10	0.00	-22.75	7.333	4.89368	7.32612	2.0
9.0151	85.5142	-0.10	0.10	0.00	-22.75	7.333	4.89553	7.32889	4.0
9.0351	85.5542	-0.10	0.10	0.00	-22.75	7.333	4.89738	7.33166	0.0
9.0551	85.5942	-0.10	0.10	0.00	-22.75	7.333	4.89922	7.33442	2.0
9.0751	85.6342	-0.10	0.10	0.00	-22.75	7.333	4.90107	7.33719	2.0
9.0951	85.6742	-0.10	0.10	0.00	-22.75	7.333	4.90292	7.33995	4.0
9.1151	85.7142	-0.10	0.10	0.00	-22.75	7.333	4.90476	7.34271	2.0
9.1351	85.7542	-0.10	0.10	0.00	-22.75	7.333	4.90661	7.34548	2.0
9.1551	85.7942	-0.10	0.10	0.00	-22.75	7.333	4.90845	7.34824	4.0
9.1751	85.8342	-0.10	0.10	0.00	-22.75	7.333	4.91029	7.35100	4.0
9.1951	85.8742	-0.10	0.10	0.00	-22.75	7.333	4.91214	7.35376	4.0
9.2151	85.9142	-0.10	0.10	0.00	-22.75	7.333	4.91398	7.35651	2.0
9.2351	85.9542	-0.10	0.10	0.00	-22.75	7.333	4.91582	7.35927	4.0
9.2551	85.9942	-0.10	0.10	0.00	-22.75	7.333	4.91766	7.36203	0.0
9.2751	86.0342	-0.10	0.10	0.00	-22.75	7.333	4.91950	7.36478	0.0
9.2951	86.0742	-0.10	0.10	0.00	-22.75	7.333	4.92134	7.36754	0.0
9.3151	86.1142	-0.10	0.10	0.00	-22.75	7.333	4.92318	7.37029	2.0
9.3351	86.1542	-0.10	0.10	0.00	-22.75	7.333	4.92502	7.37305	0.0
9.3551	86.1942	-0.10	0.10	0.00	-22.75	7.333	4.92686	7.37580	0.0
9.3751	86.2342	-0.10	0.10	0.00	-22.75	7.333	4.92870	7.37855	0.0
9.3951	86.2742	-0.10	0.10	0.00	-22.75	7.333	4.93054	7.38130	4.0
9.4151	86.3142	-0.10	0.10	0.00	-22.75	7.333	4.93237	7.38405	0.0
9.4351	86.3542	-0.10	0.10	0.00	-22.75	7.333	4.93421	7.38680	0.0
9.4551	86.3942	-0.10	0.10	0.00	-22.75	7.333	4.93604	7.38954	0.0
9.4751	86.4342	-0.10	0.10	0.00	-22.75	7.333	4.93788	7.39229	2.0
9.4951	86.4742	-0.10	0.10	0.00	-22.75	7.333	4.93971	7.39504	2.0
9.5151	86.5142	-0.10	0.10	0.00	-22.75	7.333	4.94155	7.39778	2.0
9.5351	86.5542	-0.10	0.10	0.00	-22.75	7.333	4.94338	7.40053	4.0
9.5551	86.5942	-0.10	0.10	0.00	-22.75	7.333	4.94521	7.40327	0.0
9.5751	86.6342	-0.10	0.10	0.00	-22.75	7.333	4.94704	7.40601	0.0
9.5951	86.6742	-0.10	0.10	0.00	-22.75	7.333	4.94887	7.40875	2.0
9.6151	86.7142	-0.10	0.10	0.00	-22.75	7.333	4.95070	7.41149	0.0
9.6351	86.7542	-0.10	0.10	0.00	-22.75	7.333	4.95253	7.41423	4.0
9.6551	86.7942	-0.10	0.10	0.00	-22.75	7.333	4.95436	7.41697	8.0
9.6751	86.8342	-0.10	0.10	0.00	-22.75	7.333	4.95619	7.41971	0.0
9.6951	86.8742	-0.10	0.10	0.00	-22.75	7.333	4.95802	7.42244	2.0
9.7151	86.9142	-0.10	0.10	0.00	-22.75	7.333	4.95985	7.42518	2.0
9.7351	86.9542	-0.10	0.10	0.00	-22.75	7.333	4.96167	7.42791	0.0
9.7551	86.9942	-0.10	0.10	0.00	-22.75	7.333	4.96350	7.43065	0.0
9.7751	87.0342	-0.10	0.10	0.00	-22.75	7.333	4.96533	7.43338	4.0
9.7951	87.0742	-0.10	0.10	0.00	-22.75	7.333	4.96715	7.43611	0.0
9.8151	87.1142	-0.10	0.10	0.00	-22.75	7.333	4.96898	7.43885	0.0
9.8351	87.1542	-0.10	0.10	0.00	-22.75	7.333	4.97080	7.44158	4.0
9.8551	87.1942	-0.10	0.10	0.00	-22.75	7.333	4.97262	7.44431	0.0
9.8751	87.2342	-0.10	0.10	0.00	-22.75	7.333	4.97445	7.44703	0.0
9.8951	87.2742	-0.10	0.10	0.00	-22.75	7.333	4.97627	7.44976	2.0
9.9151	87.3142	-0.10	0.10	0.00	-22.75	7.333	4.97809	7.45249	8.0
9.9351	87.3542	-0.10	0.10	0.00	-22.75	7.333	4.97991	7.45521	6.0
9.9551	87.3942	-0.10	0.10	0.00	-22.75	7.333	4.98173	7.45794	4.0
9.9751	87.4342	-0.10	0.10	0.00	-22.75	7.333	4.98355	7.46066	0.0
9.9951	87.4742	-0.10	0.10	0.00	-22.75	7.333	4.98537	7.46339	4.0
10.0151	87.5142	-0.10	0.10	0.00	-22.75	7.333	4.98719	7.46611	4.0
10.0351	87.5542	-0.10	0.10	0.00	-22.75	7.333	4.98900	7.46883	4.0
10.0551	87.5942	-0.10	0.10	0.00	-22.75	7.333	4.99082	7.47155	2.0
10.0751	87.6342	-0.10	0.10	0.00	-22.75	7.333	4.99264	7.47427	0.0
10.0951	87.6742	-0.10	0.10	0.00	-22.75	7.333	4.99445	7.47699	2.0
10.1151	87.7142	-0.10	0.10	0.00	-22.75	7.333	4.99627	7.47971	0.0
10.1351	87.7542	-0.10	0.10	0.00	-22.75	7.333	4.99808	7.48242	0.0
10.1551	87.7942	-0.10	0.10	0.00	-22.75	7.333	4.99990	7.48514	4.0
10.1751	87.8342	-0.10	0.10	0.00	-22.75	7.333	5.00171	7.48785	0.0
10.1951	87.8742	-0.10	0.10	0.00	-22.75	7.333	5.00352	7.49057	4.0
10.2151	87.9142	-0.10	0.10	0.00	-22.75	7.333	5.00534	7.49328	2.0
10.2351	87.9542	-0.10	0.10	0.00	-22.75	7.333	5.00715	7.49599	6.0
10.2551	87.9942	-0.10	0.10	0.00	-22.75	7.333	5.00896	7.49870	0.0
10.2751	88.0342	-0.10	0.10	0.00	-22.75	7.333	5.01077	7.50141	4.0
10.2951	88.0742	-0.10	0.10	0.00	-22.75	7.333	5.01258	7.50412	2.0
10.3151	88.1142	-0.10	0.10	0.00	-22.75	7.333	5.01439	7.50683	0.0
10.3351	88.1542	-0.10	0.10	0.00	-22.75	7.333	5.01620	7.50954	0.0
10.3551	88.1942	-0.10	0.10	0.00	-22.75	7.333	5.01801	7.51225	2.0
10.3751	88.2342	-0.10	0.10	0.00	-22.75	7.333	5.01981	7.51495	0.0
10.3951	88.2742	-0.10	0.10	0.00	-22.75	7.333	5.02162	7.51766	4.0
10.4151	88.3142	-0.10	0.10	0.00	-22.75	7.333	5.02343	7.52036	2.0
10.4351	88.3542	-0.10	0.10	0.00	-22.75	7.333	5.02523	7.52306	4.0
10.4551	88.3942	-0.10	0.10	0.00	-22.75	7.333	5.02704	7.52577	0.0
10.4751	88.4342	-0.10	0.10	0.00	-22.75	7.333	5.02884	7.52847	0.0
10.4951	88.4742	-0.10	0.10	0.00	-22.75	7.333	5.03064	7.53117	0.0
10.5151	88.5142	-0.10	0.10	0.00	-22.75	7.333	5.03245	7.53387	0.0
10.5351	88.5542	-0.10	0.10	0.00	-22.75	7.333	5.03425	7.53657	0.0
10.5551	88.5942	-0.10	0.10	0.00	-22.75	7.333	5.03605	7.53926	4.0
10.5751	88.6342	-0.10	0.10	0.00	-22.75	7.333	5.03785	7.54196	2.0
10.5951	88.6742	-0.10	0.10	0.00	-22.75	7.333	5.03965	7.54466	0.0
10.6151	88.7142	-0.10	0.10	0.00	-22.75	7.333	5.04145	7.54735	0.0
10.6351	88.7542	-0.10	0.10	0.00	-22.75	7.333	5.04325	7.55004	2.0
10.6551	88.7942	-0.10	0.10	0.00	-22.75	7.333	5.04505	7.55274	0.0
10.6751	88.8342	-0.10	0.10	0.00	-22.75	7.333	5.04685	7.55543	2.0
10.6951	88.8742	-0.10	0.10	0.00	-22.75	7.333	5.04865	7.55812	4.0
10.7151	88.9142	-0.10	0.10	0.00	-22.75	7.333	5.05045	7.56081	4.0
10.7351	88.9542	-0.10	0.10	0.00	-22.75	7.333	5.05224	7.56350	2.0
10.7551	88.9942	-0.10	0.10	0.00	-22.75	7.333	5.05404	7.56619	0.0
10.7751	89.0342	-0.10	0.10	0.00	-22.75	7.333	5.05583	7.56888	6.0