File: Data/113xx/2.0deg-2.0deg-rsm-3h10mins_11355-annealed_224.dat
# filename: /home/lepecvd/lepecvd/11355/xray/2.0deg-2.0deg-rsm-3h10m_11355-E4_224.xrdml
# reflection: ('2', '2', '4')
# type: Area measurement
# x-axis: Omega_2Theta
# y-axis: Omega
#
# Omega	2Theta	Phi  	Chi   	X    	Y    	Z    	q_para	q_perp	Intensity
# [deg]	[deg] 	[deg]	[deg] 	[mm] 	[mm] 	[mm] 	[nm-1]	[nm-1]	[counts/s]
6.6828	84.9998	-0.70	0.35	0.00	15.50	7.376	5.13260	7.11205	0.0
6.7028	85.0398	-0.70	0.35	0.00	15.50	7.376	5.13456	7.11476	0.0
6.7228	85.0798	-0.70	0.35	0.00	15.50	7.376	5.13651	7.11747	0.0
6.7428	85.1198	-0.70	0.35	0.00	15.50	7.376	5.13846	7.12017	0.0
6.7628	85.1598	-0.70	0.35	0.00	15.50	7.376	5.14042	7.12288	0.0
6.7828	85.1998	-0.70	0.35	0.00	15.50	7.376	5.14237	7.12559	0.0
6.8028	85.2398	-0.70	0.35	0.00	15.50	7.376	5.14432	7.12829	0.0
6.8228	85.2798	-0.70	0.35	0.00	15.50	7.376	5.14627	7.13099	4.0
6.8428	85.3198	-0.70	0.35	0.00	15.50	7.376	5.14822	7.13370	0.0
6.8628	85.3598	-0.70	0.35	0.00	15.50	7.376	5.15017	7.13640	0.0
6.8828	85.3998	-0.70	0.35	0.00	15.50	7.376	5.15212	7.13910	4.0
6.9028	85.4398	-0.70	0.35	0.00	15.50	7.376	5.15407	7.14180	2.0
6.9228	85.4798	-0.70	0.35	0.00	15.50	7.376	5.15602	7.14450	2.0
6.9428	85.5198	-0.70	0.35	0.00	15.50	7.376	5.15797	7.14720	0.0
6.9628	85.5598	-0.70	0.35	0.00	15.50	7.376	5.15991	7.14990	2.0
6.9828	85.5998	-0.70	0.35	0.00	15.50	7.376	5.16186	7.15259	0.0
7.0028	85.6398	-0.70	0.35	0.00	15.50	7.376	5.16380	7.15529	0.0
7.0228	85.6798	-0.70	0.35	0.00	15.50	7.376	5.16575	7.15798	0.0
7.0428	85.7198	-0.70	0.35	0.00	15.50	7.376	5.16769	7.16068	0.0
7.0628	85.7598	-0.70	0.35	0.00	15.50	7.376	5.16964	7.16337	4.0
7.0828	85.7998	-0.70	0.35	0.00	15.50	7.376	5.17158	7.16606	0.0
7.1028	85.8398	-0.70	0.35	0.00	15.50	7.376	5.17352	7.16875	0.0
7.1228	85.8798	-0.70	0.35	0.00	15.50	7.376	5.17546	7.17144	0.0
7.1428	85.9198	-0.70	0.35	0.00	15.50	7.376	5.17740	7.17413	0.0
7.1628	85.9598	-0.70	0.35	0.00	15.50	7.376	5.17934	7.17682	2.0
7.1828	85.9998	-0.70	0.35	0.00	15.50	7.376	5.18128	7.17951	2.0
7.2028	86.0398	-0.70	0.35	0.00	15.50	7.376	5.18322	7.18220	0.0
7.2228	86.0798	-0.70	0.35	0.00	15.50	7.376	5.18516	7.18488	2.0
7.2428	86.1198	-0.70	0.35	0.00	15.50	7.376	5.18710	7.18757	2.0
7.2628	86.1598	-0.70	0.35	0.00	15.50	7.376	5.18904	7.19025	0.0
7.2828	86.1998	-0.70	0.35	0.00	15.50	7.376	5.19097	7.19294	0.0
7.3028	86.2398	-0.70	0.35	0.00	15.50	7.376	5.19291	7.19562	4.0
7.3228	86.2798	-0.70	0.35	0.00	15.50	7.376	5.19485	7.19830	0.0
7.3428	86.3198	-0.70	0.35	0.00	15.50	7.376	5.19678	7.20098	0.0
7.3628	86.3598	-0.70	0.35	0.00	15.50	7.376	5.19871	7.20366	2.0
7.3828	86.3998	-0.70	0.35	0.00	15.50	7.376	5.20065	7.20634	0.0
7.4028	86.4398	-0.70	0.35	0.00	15.50	7.376	5.20258	7.20902	2.0
7.4228	86.4798	-0.70	0.35	0.00	15.50	7.376	5.20451	7.21170	4.0
7.4428	86.5198	-0.70	0.35	0.00	15.50	7.376	5.20644	7.21437	2.0
7.4628	86.5598	-0.70	0.35	0.00	15.50	7.376	5.20838	7.21705	0.0
7.4828	86.5998	-0.70	0.35	0.00	15.50	7.376	5.21031	7.21972	0.0
7.5028	86.6398	-0.70	0.35	0.00	15.50	7.376	5.21224	7.22240	2.0
7.5228	86.6798	-0.70	0.35	0.00	15.50	7.376	5.21416	7.22507	2.0
7.5428	86.7198	-0.70	0.35	0.00	15.50	7.376	5.21609	7.22774	2.0
7.5628	86.7598	-0.70	0.35	0.00	15.50	7.376	5.21802	7.23041	0.0
7.5828	86.7998	-0.70	0.35	0.00	15.50	7.376	5.21995	7.23309	0.0
7.6028	86.8398	-0.70	0.35	0.00	15.50	7.376	5.22187	7.23575	2.0
7.6228	86.8798	-0.70	0.35	0.00	15.50	7.376	5.22380	7.23842	6.0
7.6428	86.9198	-0.70	0.35	0.00	15.50	7.376	5.22573	7.24109	0.0
7.6628	86.9598	-0.70	0.35	0.00	15.50	7.376	5.22765	7.24376	0.0
7.6828	86.9998	-0.70	0.35	0.00	15.50	7.376	5.22957	7.24642	0.0
7.7028	87.0398	-0.70	0.35	0.00	15.50	7.376	5.23150	7.24909	0.0
7.7228	87.0798	-0.70	0.35	0.00	15.50	7.376	5.23342	7.25175	0.0
7.7428	87.1198	-0.70	0.35	0.00	15.50	7.376	5.23534	7.25442	0.0
7.7628	87.1598	-0.70	0.35	0.00	15.50	7.376	5.23726	7.25708	0.0
7.7828	87.1998	-0.70	0.35	0.00	15.50	7.376	5.23918	7.25974	2.0
7.8028	87.2398	-0.70	0.35	0.00	15.50	7.376	5.24110	7.26240	2.0
7.8228	87.2798	-0.70	0.35	0.00	15.50	7.376	5.24302	7.26506	4.0
7.8428	87.3198	-0.70	0.35	0.00	15.50	7.376	5.24494	7.26772	0.0
7.8628	87.3598	-0.70	0.35	0.00	15.50	7.376	5.24686	7.27038	0.0
7.8828	87.3998	-0.70	0.35	0.00	15.50	7.376	5.24878	7.27303	2.0
7.9028	87.4398	-0.70	0.35	0.00	15.50	7.376	5.25070	7.27569	0.0
7.9228	87.4798	-0.70	0.35	0.00	15.50	7.376	5.25261	7.27835	0.0
7.9428	87.5198	-0.70	0.35	0.00	15.50	7.376	5.25453	7.28100	0.0
7.9628	87.5598	-0.70	0.35	0.00	15.50	7.376	5.25644	7.28365	0.0
7.9828	87.5998	-0.70	0.35	0.00	15.50	7.376	5.25836	7.28631	0.0
8.0028	87.6398	-0.70	0.35	0.00	15.50	7.376	5.26027	7.28896	0.0
8.0228	87.6798	-0.70	0.35	0.00	15.50	7.376	5.26218	7.29161	2.0
8.0428	87.7198	-0.70	0.35	0.00	15.50	7.376	5.26410	7.29426	2.0
8.0628	87.7598	-0.70	0.35	0.00	15.50	7.376	5.26601	7.29691	0.0
8.0828	87.7998	-0.70	0.35	0.00	15.50	7.376	5.26792	7.29956	0.0
8.1028	87.8398	-0.70	0.35	0.00	15.50	7.376	5.26983	7.30220	2.0
8.1228	87.8798	-0.70	0.35	0.00	15.50	7.376	5.27174	7.30485	2.0
8.1428	87.9198	-0.70	0.35	0.00	15.50	7.376	5.27365	7.30750	2.0
8.1628	87.9598	-0.70	0.35	0.00	15.50	7.376	5.27556	7.31014	2.0
8.1828	87.9998	-0.70	0.35	0.00	15.50	7.376	5.27747	7.31279	4.0
8.2028	88.0398	-0.70	0.35	0.00	15.50	7.376	5.27937	7.31543	0.0
8.2228	88.0798	-0.70	0.35	0.00	15.50	7.376	5.28128	7.31807	2.0
8.2428	88.1198	-0.70	0.35	0.00	15.50	7.376	5.28319	7.32071	0.0
8.2628	88.1598	-0.70	0.35	0.00	15.50	7.376	5.28509	7.32335	6.0
8.2828	88.1998	-0.70	0.35	0.00	15.50	7.376	5.28700	7.32599	4.0
8.3028	88.2398	-0.70	0.35	0.00	15.50	7.376	5.28890	7.32863	0.0
8.3228	88.2798	-0.70	0.35	0.00	15.50	7.376	5.29080	7.33127	0.0
8.3428	88.3198	-0.70	0.35	0.00	15.50	7.376	5.29271	7.33390	2.0
8.3628	88.3598	-0.70	0.35	0.00	15.50	7.376	5.29461	7.33654	2.0
8.3828	88.3998	-0.70	0.35	0.00	15.50	7.376	5.29651	7.33917	0.0
8.4028	88.4398	-0.70	0.35	0.00	15.50	7.376	5.29841	7.34181	2.0
8.4228	88.4798	-0.70	0.35	0.00	15.50	7.376	5.30031	7.34444	2.0
8.4428	88.5198	-0.70	0.35	0.00	15.50	7.376	5.30221	7.34707	0.0
8.4628	88.5598	-0.70	0.35	0.00	15.50	7.376	5.30411	7.34970	0.0
8.4828	88.5998	-0.70	0.35	0.00	15.50	7.376	5.30601	7.35234	2.0
8.5028	88.6398	-0.70	0.35	0.00	15.50	7.376	5.30791	7.35496	0.0
8.5228	88.6798	-0.70	0.35	0.00	15.50	7.376	5.30980	7.35759	2.0
8.5428	88.7198	-0.70	0.35	0.00	15.50	7.376	5.31170	7.36022	2.0
8.5628	88.7598	-0.70	0.35	0.00	15.50	7.376	5.31359	7.36285	2.0
8.5828	88.7998	-0.70	0.35	0.00	15.50	7.376	5.31549	7.36547	0.0
8.6028	88.8398	-0.70	0.35	0.00	15.50	7.376	5.31738	7.36810	0.0
8.6228	88.8798	-0.70	0.35	0.00	15.50	7.376	5.31928	7.37072	0.0
8.6428	88.9198	-0.70	0.35	0.00	15.50	7.376	5.32117	7.37335	0.0
8.6628	88.9598	-0.70	0.35	0.00	15.50	7.376	5.32306	7.37597	0.0

6.7028	84.9998	-0.70	0.35	0.00	15.50	7.376	5.13012	7.11384	2.0
6.7228	85.0398	-0.70	0.35	0.00	15.50	7.376	5.13207	7.11655	0.0
6.7428	85.0798	-0.70	0.35	0.00	15.50	7.376	5.13402	7.11926	2.0
6.7628	85.1198	-0.70	0.35	0.00	15.50	7.376	5.13598	7.12197	2.0
6.7828	85.1598	-0.70	0.35	0.00	15.50	7.376	5.13793	7.12467	0.0
6.8028	85.1998	-0.70	0.35	0.00	15.50	7.376	5.13988	7.12738	0.0
6.8228	85.2398	-0.70	0.35	0.00	15.50	7.376	5.14183	7.13009	0.0
6.8428	85.2798	-0.70	0.35	0.00	15.50	7.376	5.14378	7.13279	0.0
6.8628	85.3198	-0.70	0.35	0.00	15.50	7.376	5.14573	7.13549	0.0
6.8828	85.3598	-0.70	0.35	0.00	15.50	7.376	5.14768	7.13820	0.0
6.9028	85.3998	-0.70	0.35	0.00	15.50	7.376	5.14963	7.14090	2.0
6.9228	85.4398	-0.70	0.35	0.00	15.50	7.376	5.15158	7.14360	0.0
6.9428	85.4798	-0.70	0.35	0.00	15.50	7.376	5.15352	7.14630	2.0
6.9628	85.5198	-0.70	0.35	0.00	15.50	7.376	5.15547	7.14900	0.0
6.9828	85.5598	-0.70	0.35	0.00	15.50	7.376	5.15742	7.15170	0.0
7.0028	85.5998	-0.70	0.35	0.00	15.50	7.376	5.15936	7.15439	0.0
7.0228	85.6398	-0.70	0.35	0.00	15.50	7.376	5.16131	7.15709	2.0
7.0428	85.6798	-0.70	0.35	0.00	15.50	7.376	5.16325	7.15979	4.0
7.0628	85.7198	-0.70	0.35	0.00	15.50	7.376	5.16519	7.16248	2.0
7.0828	85.7598	-0.70	0.35	0.00	15.50	7.376	5.16714	7.16517	2.0
7.1028	85.7998	-0.70	0.35	0.00	15.50	7.376	5.16908	7.16787	0.0
7.1228	85.8398	-0.70	0.35	0.00	15.50	7.376	5.17102	7.17056	0.0
7.1428	85.8798	-0.70	0.35	0.00	15.50	7.376	5.17296	7.17325	0.0
7.1628	85.9198	-0.70	0.35	0.00	15.50	7.376	5.17490	7.17594	2.0
7.1828	85.9598	-0.70	0.35	0.00	15.50	7.376	5.17684	7.17863	0.0
7.2028	85.9998	-0.70	0.35	0.00	15.50	7.376	5.17878	7.18132	0.0
7.2228	86.0398	-0.70	0.35	0.00	15.50	7.376	5.18072	7.18401	2.0
7.2428	86.0798	-0.70	0.35	0.00	15.50	7.376	5.18265	7.18669	0.0
7.2628	86.1198	-0.70	0.35	0.00	15.50	7.376	5.18459	7.18938	2.0
7.2828	86.1598	-0.70	0.35	0.00	15.50	7.376	5.18653	7.19206	2.0
7.3028	86.1998	-0.70	0.35	0.00	15.50	7.376	5.18846	7.19475	0.0
7.3228	86.2398	-0.70	0.35	0.00	15.50	7.376	5.19040	7.19743	0.0
7.3428	86.2798	-0.70	0.35	0.00	15.50	7.376	5.19233	7.20011	0.0
7.3628	86.3198	-0.70	0.35	0.00	15.50	7.376	5.19427	7.20280	0.0
7.3828	86.3598	-0.70	0.35	0.00	15.50	7.376	5.19620	7.20548	2.0
7.4028	86.3998	-0.70	0.35	0.00	15.50	7.376	5.19813	7.20816	2.0
7.4228	86.4398	-0.70	0.35	0.00	15.50	7.376	5.20006	7.21084	4.0
7.4428	86.4798	-0.70	0.35	0.00	15.50	7.376	5.20200	7.21351	2.0
7.4628	86.5198	-0.70	0.35	0.00	15.50	7.376	5.20393	7.21619	0.0
7.4828	86.5598	-0.70	0.35	0.00	15.50	7.376	5.20586	7.21887	0.0
7.5028	86.5998	-0.70	0.35	0.00	15.50	7.376	5.20779	7.22154	2.0
7.5228	86.6398	-0.70	0.35	0.00	15.50	7.376	5.20971	7.22422	0.0
7.5428	86.6798	-0.70	0.35	0.00	15.50	7.376	5.21164	7.22689	2.0
7.5628	86.7198	-0.70	0.35	0.00	15.50	7.376	5.21357	7.22956	4.0
7.5828	86.7598	-0.70	0.35	0.00	15.50	7.376	5.21550	7.23224	0.0
7.6028	86.7998	-0.70	0.35	0.00	15.50	7.376	5.21742	7.23491	2.0
7.6228	86.8398	-0.70	0.35	0.00	15.50	7.376	5.21935	7.23758	2.0
7.6428	86.8798	-0.70	0.35	0.00	15.50	7.376	5.22127	7.24025	0.0
7.6628	86.9198	-0.70	0.35	0.00	15.50	7.376	5.22320	7.24291	0.0
7.6828	86.9598	-0.70	0.35	0.00	15.50	7.376	5.22512	7.24558	0.0
7.7028	86.9998	-0.70	0.35	0.00	15.50	7.376	5.22704	7.24825	2.0
7.7228	87.0398	-0.70	0.35	0.00	15.50	7.376	5.22897	7.25091	0.0
7.7428	87.0798	-0.70	0.35	0.00	15.50	7.376	5.23089	7.25358	2.0
7.7628	87.1198	-0.70	0.35	0.00	15.50	7.376	5.23281	7.25624	0.0
7.7828	87.1598	-0.70	0.35	0.00	15.50	7.376	5.23473	7.25891	0.0
7.8028	87.1998	-0.70	0.35	0.00	15.50	7.376	5.23665	7.26157	0.0
7.8228	87.2398	-0.70	0.35	0.00	15.50	7.376	5.23857	7.26423	0.0
7.8428	87.2798	-0.70	0.35	0.00	15.50	7.376	5.24049	7.26689	0.0
7.8628	87.3198	-0.70	0.35	0.00	15.50	7.376	5.24241	7.26955	0.0
7.8828	87.3598	-0.70	0.35	0.00	15.50	7.376	5.24432	7.27221	0.0
7.9028	87.3998	-0.70	0.35	0.00	15.50	7.376	5.24624	7.27487	0.0
7.9228	87.4398	-0.70	0.35	0.00	15.50	7.376	5.24816	7.27752	6.0
7.9428	87.4798	-0.70	0.35	0.00	15.50	7.376	5.25007	7.28018	0.0
7.9628	87.5198	-0.70	0.35	0.00	15.50	7.376	5.25199	7.28283	2.0
7.9828	87.5598	-0.70	0.35	0.00	15.50	7.376	5.25390	7.28549	0.0
8.0028	87.5998	-0.70	0.35	0.00	15.50	7.376	5.25581	7.28814	0.0
8.0228	87.6398	-0.70	0.35	0.00	15.50	7.376	5.25773	7.29079	2.0
8.0428	87.6798	-0.70	0.35	0.00	15.50	7.376	5.25964	7.29345	2.0
8.0628	87.7198	-0.70	0.35	0.00	15.50	7.376	5.26155	7.29610	2.0
8.0828	87.7598	-0.70	0.35	0.00	15.50	7.376	5.26346	7.29875	2.0
8.1028	87.7998	-0.70	0.35	0.00	15.50	7.376	5.26537	7.30140	2.0
8.1228	87.8398	-0.70	0.35	0.00	15.50	7.376	5.26728	7.30404	0.0
8.1428	87.8798	-0.70	0.35	0.00	15.50	7.376	5.26919	7.30669	0.0
8.1628	87.9198	-0.70	0.35	0.00	15.50	7.376	5.27110	7.30934	0.0
8.1828	87.9598	-0.70	0.35	0.00	15.50	7.376	5.27301	7.31198	4.0
8.2028	87.9998	-0.70	0.35	0.00	15.50	7.376	5.27491	7.31463	6.0
8.2228	88.0398	-0.70	0.35	0.00	15.50	7.376	5.27682	7.31727	0.0
8.2428	88.0798	-0.70	0.35	0.00	15.50	7.376	5.27872	7.31991	2.0
8.2628	88.1198	-0.70	0.35	0.00	15.50	7.376	5.28063	7.32256	0.0
8.2828	88.1598	-0.70	0.35	0.00	15.50	7.376	5.28253	7.32520	0.0
8.3028	88.1998	-0.70	0.35	0.00	15.50	7.376	5.28444	7.32784	2.0
8.3228	88.2398	-0.70	0.35	0.00	15.50	7.376	5.28634	7.33048	2.0
8.3428	88.2798	-0.70	0.35	0.00	15.50	7.376	5.28824	7.33311	0.0
8.3628	88.3198	-0.70	0.35	0.00	15.50	7.376	5.29015	7.33575	2.0
8.3828	88.3598	-0.70	0.35	0.00	15.50	7.376	5.29205	7.33839	0.0
8.4028	88.3998	-0.70	0.35	0.00	15.50	7.376	5.29395	7.34102	4.0
8.4228	88.4398	-0.70	0.35	0.00	15.50	7.376	5.29585	7.34366	0.0
8.4428	88.4798	-0.70	0.35	0.00	15.50	7.376	5.29775	7.34629	2.0
8.4628	88.5198	-0.70	0.35	0.00	15.50	7.376	5.29965	7.34892	0.0
8.4828	88.5598	-0.70	0.35	0.00	15.50	7.376	5.30154	7.35156	0.0
8.5028	88.5998	-0.70	0.35	0.00	15.50	7.376	5.30344	7.35419	4.0
8.5228	88.6398	-0.70	0.35	0.00	15.50	7.376	5.30534	7.35682	0.0
8.5428	88.6798	-0.70	0.35	0.00	15.50	7.376	5.30723	7.35945	0.0
8.5628	88.7198	-0.70	0.35	0.00	15.50	7.376	5.30913	7.36207	0.0
8.5828	88.7598	-0.70	0.35	0.00	15.50	7.376	5.31102	7.36470	2.0
8.6028	88.7998	-0.70	0.35	0.00	15.50	7.376	5.31292	7.36733	2.0
8.6228	88.8398	-0.70	0.35	0.00	15.50	7.376	5.31481	7.36995	0.0
8.6428	88.8798	-0.70	0.35	0.00	15.50	7.376	5.31670	7.37258	0.0
8.6628	88.9198	-0.70	0.35	0.00	15.50	7.376	5.31860	7.37520	0.0
8.6828	88.9598	-0.70	0.35	0.00	15.50	7.376	5.32049	7.37783	0.0

6.7228	84.9998	-0.70	0.35	0.00	15.50	7.376	5.12763	7.11563	2.0
6.7428	85.0398	-0.70	0.35	0.00	15.50	7.376	5.12959	7.11834	0.0
6.7628	85.0798	-0.70	0.35	0.00	15.50	7.376	5.13154	7.12105	0.0
6.7828	85.1198	-0.70	0.35	0.00	15.50	7.376	5.13349	7.12376	4.0
6.8028	85.1598	-0.70	0.35	0.00	15.50	7.376	5.13544	7.12647	2.0
6.8228	85.1998	-0.70	0.35	0.00	15.50	7.376	5.13739	7.12917	0.0
6.8428	85.2398	-0.70	0.35	0.00	15.50	7.376	5.13934	7.13188	0.0
6.8628	85.2798	-0.70	0.35	0.00	15.50	7.376	5.14129	7.13459	2.0
6.8828	85.3198	-0.70	0.35	0.00	15.50	7.376	5.14324	7.13729	4.0
6.9028	85.3598	-0.70	0.35	0.00	15.50	7.376	5.14519	7.13999	0.0
6.9228	85.3998	-0.70	0.35	0.00	15.50	7.376	5.14714	7.14270	4.0
6.9428	85.4398	-0.70	0.35	0.00	15.50	7.376	5.14908	7.14540	0.0
6.9628	85.4798	-0.70	0.35	0.00	15.50	7.376	5.15103	7.14810	2.0
6.9828	85.5198	-0.70	0.35	0.00	15.50	7.376	5.15297	7.15080	0.0
7.0028	85.5598	-0.70	0.35	0.00	15.50	7.376	5.15492	7.15350	2.0
7.0228	85.5998	-0.70	0.35	0.00	15.50	7.376	5.15686	7.15619	0.0
7.0428	85.6398	-0.70	0.35	0.00	15.50	7.376	5.15881	7.15889	0.0
7.0628	85.6798	-0.70	0.35	0.00	15.50	7.376	5.16075	7.16159	0.0
7.0828	85.7198	-0.70	0.35	0.00	15.50	7.376	5.16269	7.16428	0.0
7.1028	85.7598	-0.70	0.35	0.00	15.50	7.376	5.16463	7.16698	0.0
7.1228	85.7998	-0.70	0.35	0.00	15.50	7.376	5.16657	7.16967	0.0
7.1428	85.8398	-0.70	0.35	0.00	15.50	7.376	5.16852	7.17236	0.0
7.1628	85.8798	-0.70	0.35	0.00	15.50	7.376	5.17046	7.17506	0.0
7.1828	85.9198	-0.70	0.35	0.00	15.50	7.376	5.17239	7.17775	2.0
7.2028	85.9598	-0.70	0.35	0.00	15.50	7.376	5.17433	7.18044	0.0
7.2228	85.9998	-0.70	0.35	0.00	15.50	7.376	5.17627	7.18313	0.0
7.2428	86.0398	-0.70	0.35	0.00	15.50	7.376	5.17821	7.18581	0.0
7.2628	86.0798	-0.70	0.35	0.00	15.50	7.376	5.18014	7.18850	0.0
7.2828	86.1198	-0.70	0.35	0.00	15.50	7.376	5.18208	7.19119	2.0
7.3028	86.1598	-0.70	0.35	0.00	15.50	7.376	5.18402	7.19387	0.0
7.3228	86.1998	-0.70	0.35	0.00	15.50	7.376	5.18595	7.19656	6.0
7.3428	86.2398	-0.70	0.35	0.00	15.50	7.376	5.18789	7.19924	4.0
7.3628	86.2798	-0.70	0.35	0.00	15.50	7.376	5.18982	7.20193	2.0
7.3828	86.3198	-0.70	0.35	0.00	15.50	7.376	5.19175	7.20461	0.0
7.4028	86.3598	-0.70	0.35	0.00	15.50	7.376	5.19368	7.20729	2.0
7.4228	86.3998	-0.70	0.35	0.00	15.50	7.376	5.19562	7.20997	4.0
7.4428	86.4398	-0.70	0.35	0.00	15.50	7.376	5.19755	7.21265	0.0
7.4628	86.4798	-0.70	0.35	0.00	15.50	7.376	5.19948	7.21533	6.0
7.4828	86.5198	-0.70	0.35	0.00	15.50	7.376	5.20141	7.21801	6.0
7.5028	86.5598	-0.70	0.35	0.00	15.50	7.376	5.20334	7.22068	0.0
7.5228	86.5998	-0.70	0.35	0.00	15.50	7.376	5.20526	7.22336	2.0
7.5428	86.6398	-0.70	0.35	0.00	15.50	7.376	5.20719	7.22604	2.0
7.5628	86.6798	-0.70	0.35	0.00	15.50	7.376	5.20912	7.22871	0.0
7.5828	86.7198	-0.70	0.35	0.00	15.50	7.376	5.21105	7.23138	2.0
7.6028	86.7598	-0.70	0.35	0.00	15.50	7.376	5.21297	7.23406	0.0
7.6228	86.7998	-0.70	0.35	0.00	15.50	7.376	5.21490	7.23673	0.0
7.6428	86.8398	-0.70	0.35	0.00	15.50	7.376	5.21682	7.23940	2.0
7.6628	86.8798	-0.70	0.35	0.00	15.50	7.376	5.21875	7.24207	2.0
7.6828	86.9198	-0.70	0.35	0.00	15.50	7.376	5.22067	7.24474	0.0
7.7028	86.9598	-0.70	0.35	0.00	15.50	7.376	5.22259	7.24741	2.0
7.7228	86.9998	-0.70	0.35	0.00	15.50	7.376	5.22451	7.25007	0.0
7.7428	87.0398	-0.70	0.35	0.00	15.50	7.376	5.22644	7.25274	0.0
7.7628	87.0798	-0.70	0.35	0.00	15.50	7.376	5.22836	7.25541	8.0
7.7828	87.1198	-0.70	0.35	0.00	15.50	7.376	5.23028	7.25807	2.0
7.8028	87.1598	-0.70	0.35	0.00	15.50	7.376	5.23220	7.26073	0.0
7.8228	87.1998	-0.70	0.35	0.00	15.50	7.376	5.23411	7.26340	0.0
7.8428	87.2398	-0.70	0.35	0.00	15.50	7.376	5.23603	7.26606	0.0
7.8628	87.2798	-0.70	0.35	0.00	15.50	7.376	5.23795	7.26872	2.0
7.8828	87.3198	-0.70	0.35	0.00	15.50	7.376	5.23987	7.27138	2.0
7.9028	87.3598	-0.70	0.35	0.00	15.50	7.376	5.24178	7.27404	2.0
7.9228	87.3998	-0.70	0.35	0.00	15.50	7.376	5.24370	7.27670	2.0
7.9428	87.4398	-0.70	0.35	0.00	15.50	7.376	5.24561	7.27936	0.0
7.9628	87.4798	-0.70	0.35	0.00	15.50	7.376	5.24753	7.28201	0.0
7.9828	87.5198	-0.70	0.35	0.00	15.50	7.376	5.24944	7.28467	2.0
8.0028	87.5598	-0.70	0.35	0.00	15.50	7.376	5.25136	7.28732	0.0
8.0228	87.5998	-0.70	0.35	0.00	15.50	7.376	5.25327	7.28998	2.0
8.0428	87.6398	-0.70	0.35	0.00	15.50	7.376	5.25518	7.29263	0.0
8.0628	87.6798	-0.70	0.35	0.00	15.50	7.376	5.25709	7.29528	2.0
8.0828	87.7198	-0.70	0.35	0.00	15.50	7.376	5.25900	7.29793	2.0
[...]
9.9428	87.5598	-0.70	0.35	0.00	15.50	7.376	5.00165	7.46092	2.0
9.9628	87.5998	-0.70	0.35	0.00	15.50	7.376	5.00347	7.46364	4.0
9.9828	87.6398	-0.70	0.35	0.00	15.50	7.376	5.00529	7.46635	2.0
10.0028	87.6798	-0.70	0.35	0.00	15.50	7.376	5.00711	7.46907	4.0
10.0228	87.7198	-0.70	0.35	0.00	15.50	7.376	5.00893	7.47178	0.0
10.0428	87.7598	-0.70	0.35	0.00	15.50	7.376	5.01075	7.47450	0.0
10.0628	87.7998	-0.70	0.35	0.00	15.50	7.376	5.01257	7.47721	0.0
10.0828	87.8398	-0.70	0.35	0.00	15.50	7.376	5.01439	7.47992	2.0
10.1028	87.8798	-0.70	0.35	0.00	15.50	7.376	5.01620	7.48263	0.0
10.1228	87.9198	-0.70	0.35	0.00	15.50	7.376	5.01802	7.48534	0.0
10.1428	87.9598	-0.70	0.35	0.00	15.50	7.376	5.01984	7.48805	2.0
10.1628	87.9998	-0.70	0.35	0.00	15.50	7.376	5.02165	7.49076	2.0
10.1828	88.0398	-0.70	0.35	0.00	15.50	7.376	5.02347	7.49347	0.0
10.2028	88.0798	-0.70	0.35	0.00	15.50	7.376	5.02528	7.49617	4.0
10.2228	88.1198	-0.70	0.35	0.00	15.50	7.376	5.02710	7.49888	0.0
10.2428	88.1598	-0.70	0.35	0.00	15.50	7.376	5.02891	7.50158	2.0
10.2628	88.1998	-0.70	0.35	0.00	15.50	7.376	5.03072	7.50429	0.0
10.2828	88.2398	-0.70	0.35	0.00	15.50	7.376	5.03253	7.50699	2.0
10.3028	88.2798	-0.70	0.35	0.00	15.50	7.376	5.03434	7.50969	2.0
10.3228	88.3198	-0.70	0.35	0.00	15.50	7.376	5.03616	7.51239	2.0
10.3428	88.3598	-0.70	0.35	0.00	15.50	7.376	5.03796	7.51509	0.0
10.3628	88.3998	-0.70	0.35	0.00	15.50	7.376	5.03977	7.51779	0.0
10.3828	88.4398	-0.70	0.35	0.00	15.50	7.376	5.04158	7.52049	0.0
10.4028	88.4798	-0.70	0.35	0.00	15.50	7.376	5.04339	7.52319	2.0
10.4228	88.5198	-0.70	0.35	0.00	15.50	7.376	5.04520	7.52588	2.0
10.4428	88.5598	-0.70	0.35	0.00	15.50	7.376	5.04701	7.52858	0.0
10.4628	88.5998	-0.70	0.35	0.00	15.50	7.376	5.04881	7.53127	0.0
10.4828	88.6398	-0.70	0.35	0.00	15.50	7.376	5.05062	7.53396	4.0
10.5028	88.6798	-0.70	0.35	0.00	15.50	7.376	5.05242	7.53666	2.0
10.5228	88.7198	-0.70	0.35	0.00	15.50	7.376	5.05423	7.53935	0.0
10.5428	88.7598	-0.70	0.35	0.00	15.50	7.376	5.05603	7.54204	0.0
10.5628	88.7998	-0.70	0.35	0.00	15.50	7.376	5.05783	7.54473	0.0
10.5828	88.8398	-0.70	0.35	0.00	15.50	7.376	5.05964	7.54742	0.0
10.6028	88.8798	-0.70	0.35	0.00	15.50	7.376	5.06144	7.55011	2.0
10.6228	88.9198	-0.70	0.35	0.00	15.50	7.376	5.06324	7.55279	0.0
10.6428	88.9598	-0.70	0.35	0.00	15.50	7.376	5.06504	7.55548	2.0

8.6828	84.9998	-0.70	0.35	0.00	15.50	7.376	4.88127	7.28684	0.0
8.7028	85.0398	-0.70	0.35	0.00	15.50	7.376	4.88313	7.28962	2.0
8.7228	85.0798	-0.70	0.35	0.00	15.50	7.376	4.88498	7.29239	2.0
8.7428	85.1198	-0.70	0.35	0.00	15.50	7.376	4.88684	7.29517	0.0
8.7628	85.1598	-0.70	0.35	0.00	15.50	7.376	4.88870	7.29794	2.0
8.7828	85.1998	-0.70	0.35	0.00	15.50	7.376	4.89056	7.30071	0.0
8.8028	85.2398	-0.70	0.35	0.00	15.50	7.376	4.89241	7.30348	2.0
8.8228	85.2798	-0.70	0.35	0.00	15.50	7.376	4.89427	7.30625	2.0
8.8428	85.3198	-0.70	0.35	0.00	15.50	7.376	4.89612	7.30902	0.0
8.8628	85.3598	-0.70	0.35	0.00	15.50	7.376	4.89798	7.31179	0.0
8.8828	85.3998	-0.70	0.35	0.00	15.50	7.376	4.89983	7.31456	0.0
8.9028	85.4398	-0.70	0.35	0.00	15.50	7.376	4.90168	7.31732	0.0
8.9228	85.4798	-0.70	0.35	0.00	15.50	7.376	4.90354	7.32009	0.0
8.9428	85.5198	-0.70	0.35	0.00	15.50	7.376	4.90539	7.32285	4.0
8.9628	85.5598	-0.70	0.35	0.00	15.50	7.376	4.90724	7.32562	0.0
8.9828	85.5998	-0.70	0.35	0.00	15.50	7.376	4.90909	7.32838	2.0
9.0028	85.6398	-0.70	0.35	0.00	15.50	7.376	4.91094	7.33114	0.0
9.0228	85.6798	-0.70	0.35	0.00	15.50	7.376	4.91279	7.33390	0.0
9.0428	85.7198	-0.70	0.35	0.00	15.50	7.376	4.91464	7.33666	2.0
9.0628	85.7598	-0.70	0.35	0.00	15.50	7.376	4.91649	7.33942	4.0
9.0828	85.7998	-0.70	0.35	0.00	15.50	7.376	4.91834	7.34218	0.0
9.1028	85.8398	-0.70	0.35	0.00	15.50	7.376	4.92018	7.34494	0.0
9.1228	85.8798	-0.70	0.35	0.00	15.50	7.376	4.92203	7.34770	4.0
9.1428	85.9198	-0.70	0.35	0.00	15.50	7.376	4.92388	7.35045	0.0
9.1628	85.9598	-0.70	0.35	0.00	15.50	7.376	4.92572	7.35321	4.0
9.1828	85.9998	-0.70	0.35	0.00	15.50	7.376	4.92757	7.35596	2.0
9.2028	86.0398	-0.70	0.35	0.00	15.50	7.376	4.92941	7.35871	0.0
9.2228	86.0798	-0.70	0.35	0.00	15.50	7.376	4.93125	7.36147	2.0
9.2428	86.1198	-0.70	0.35	0.00	15.50	7.376	4.93310	7.36422	2.0
9.2628	86.1598	-0.70	0.35	0.00	15.50	7.376	4.93494	7.36697	6.0
9.2828	86.1998	-0.70	0.35	0.00	15.50	7.376	4.93678	7.36972	0.0
9.3028	86.2398	-0.70	0.35	0.00	15.50	7.376	4.93862	7.37247	2.0
9.3228	86.2798	-0.70	0.35	0.00	15.50	7.376	4.94046	7.37521	0.0
9.3428	86.3198	-0.70	0.35	0.00	15.50	7.376	4.94230	7.37796	2.0
9.3628	86.3598	-0.70	0.35	0.00	15.50	7.376	4.94414	7.38071	4.0
9.3828	86.3998	-0.70	0.35	0.00	15.50	7.376	4.94598	7.38345	2.0
9.4028	86.4398	-0.70	0.35	0.00	15.50	7.376	4.94782	7.38620	4.0
9.4228	86.4798	-0.70	0.35	0.00	15.50	7.376	4.94966	7.38894	2.0
9.4428	86.5198	-0.70	0.35	0.00	15.50	7.376	4.95149	7.39168	0.0
9.4628	86.5598	-0.70	0.35	0.00	15.50	7.376	4.95333	7.39442	0.0
9.4828	86.5998	-0.70	0.35	0.00	15.50	7.376	4.95517	7.39716	2.0
9.5028	86.6398	-0.70	0.35	0.00	15.50	7.376	4.95700	7.39990	2.0
9.5228	86.6798	-0.70	0.35	0.00	15.50	7.376	4.95884	7.40264	0.0
9.5428	86.7198	-0.70	0.35	0.00	15.50	7.376	4.96067	7.40538	2.0
9.5628	86.7598	-0.70	0.35	0.00	15.50	7.376	4.96250	7.40812	2.0
9.5828	86.7998	-0.70	0.35	0.00	15.50	7.376	4.96434	7.41085	4.0
9.6028	86.8398	-0.70	0.35	0.00	15.50	7.376	4.96617	7.41359	2.0
9.6228	86.8798	-0.70	0.35	0.00	15.50	7.376	4.96800	7.41632	2.0
9.6428	86.9198	-0.70	0.35	0.00	15.50	7.376	4.96983	7.41906	2.0
9.6628	86.9598	-0.70	0.35	0.00	15.50	7.376	4.97166	7.42179	0.0
9.6828	86.9998	-0.70	0.35	0.00	15.50	7.376	4.97349	7.42452	0.0
9.7028	87.0398	-0.70	0.35	0.00	15.50	7.376	4.97532	7.42725	0.0
9.7228	87.0798	-0.70	0.35	0.00	15.50	7.376	4.97715	7.42998	2.0
9.7428	87.1198	-0.70	0.35	0.00	15.50	7.376	4.97898	7.43271	0.0
9.7628	87.1598	-0.70	0.35	0.00	15.50	7.376	4.98080	7.43544	0.0
9.7828	87.1998	-0.70	0.35	0.00	15.50	7.376	4.98263	7.43816	0.0
9.8028	87.2398	-0.70	0.35	0.00	15.50	7.376	4.98446	7.44089	0.0
9.8228	87.2798	-0.70	0.35	0.00	15.50	7.376	4.98628	7.44361	6.0
9.8428	87.3198	-0.70	0.35	0.00	15.50	7.376	4.98811	7.44634	2.0
9.8628	87.3598	-0.70	0.35	0.00	15.50	7.376	4.98993	7.44906	4.0
9.8828	87.3998	-0.70	0.35	0.00	15.50	7.376	4.99176	7.45178	0.0
9.9028	87.4398	-0.70	0.35	0.00	15.50	7.376	4.99358	7.45451	0.0
9.9228	87.4798	-0.70	0.35	0.00	15.50	7.376	4.99540	7.45723	0.0
9.9428	87.5198	-0.70	0.35	0.00	15.50	7.376	4.99722	7.45995	0.0
9.9628	87.5598	-0.70	0.35	0.00	15.50	7.376	4.99904	7.46266	2.0
9.9828	87.5998	-0.70	0.35	0.00	15.50	7.376	5.00087	7.46538	2.0
10.0028	87.6398	-0.70	0.35	0.00	15.50	7.376	5.00269	7.46810	4.0
10.0228	87.6798	-0.70	0.35	0.00	15.50	7.376	5.00450	7.47082	0.0
10.0428	87.7198	-0.70	0.35	0.00	15.50	7.376	5.00632	7.47353	0.0
10.0628	87.7598	-0.70	0.35	0.00	15.50	7.376	5.00814	7.47625	2.0
10.0828	87.7998	-0.70	0.35	0.00	15.50	7.376	5.00996	7.47896	0.0
10.1028	87.8398	-0.70	0.35	0.00	15.50	7.376	5.01178	7.48167	4.0
10.1228	87.8798	-0.70	0.35	0.00	15.50	7.376	5.01359	7.48438	4.0
10.1428	87.9198	-0.70	0.35	0.00	15.50	7.376	5.01541	7.48709	2.0
10.1628	87.9598	-0.70	0.35	0.00	15.50	7.376	5.01722	7.48980	0.0
10.1828	87.9998	-0.70	0.35	0.00	15.50	7.376	5.01904	7.49251	0.0
10.2028	88.0398	-0.70	0.35	0.00	15.50	7.376	5.02085	7.49522	2.0
10.2228	88.0798	-0.70	0.35	0.00	15.50	7.376	5.02267	7.49793	0.0
10.2428	88.1198	-0.70	0.35	0.00	15.50	7.376	5.02448	7.50063	0.0
10.2628	88.1598	-0.70	0.35	0.00	15.50	7.376	5.02629	7.50334	0.0
10.2828	88.1998	-0.70	0.35	0.00	15.50	7.376	5.02810	7.50604	2.0
10.3028	88.2398	-0.70	0.35	0.00	15.50	7.376	5.02991	7.50874	2.0
10.3228	88.2798	-0.70	0.35	0.00	15.50	7.376	5.03172	7.51145	0.0
10.3428	88.3198	-0.70	0.35	0.00	15.50	7.376	5.03353	7.51415	0.0
10.3628	88.3598	-0.70	0.35	0.00	15.50	7.376	5.03534	7.51685	2.0
10.3828	88.3998	-0.70	0.35	0.00	15.50	7.376	5.03715	7.51955	0.0
10.4028	88.4398	-0.70	0.35	0.00	15.50	7.376	5.03896	7.52225	0.0
10.4228	88.4798	-0.70	0.35	0.00	15.50	7.376	5.04076	7.52495	4.0
10.4428	88.5198	-0.70	0.35	0.00	15.50	7.376	5.04257	7.52764	2.0
10.4628	88.5598	-0.70	0.35	0.00	15.50	7.376	5.04438	7.53034	0.0
10.4828	88.5998	-0.70	0.35	0.00	15.50	7.376	5.04618	7.53303	0.0
10.5028	88.6398	-0.70	0.35	0.00	15.50	7.376	5.04799	7.53573	2.0
10.5228	88.6798	-0.70	0.35	0.00	15.50	7.376	5.04979	7.53842	4.0
10.5428	88.7198	-0.70	0.35	0.00	15.50	7.376	5.05159	7.54111	0.0
10.5628	88.7598	-0.70	0.35	0.00	15.50	7.376	5.05340	7.54380	0.0
10.5828	88.7998	-0.70	0.35	0.00	15.50	7.376	5.05520	7.54649	2.0
10.6028	88.8398	-0.70	0.35	0.00	15.50	7.376	5.05700	7.54918	4.0
10.6228	88.8798	-0.70	0.35	0.00	15.50	7.376	5.05880	7.55187	0.0
10.6428	88.9198	-0.70	0.35	0.00	15.50	7.376	5.06060	7.55456	2.0
10.6628	88.9598	-0.70	0.35	0.00	15.50	7.376	5.06240	7.55725	4.0