File: Data/113xx/2.0deg-2.0deg-rsm-3h10mins_11355-as-grown_224.dat
# filename: /home/lepecvd/lepecvd/11355/xray/2.0deg-2.0deg-rsm-3h10m_11355-E5_224.xrdml
# reflection: ('2', '2', '4')
# type: Area measurement
# x-axis: Omega_2Theta
# y-axis: Omega
#
# Omega	2Theta	Phi  	Chi   	X    	Y    	Z    	q_para	q_perp	Intensity
# [deg]	[deg] 	[deg]	[deg] 	[mm] 	[mm] 	[mm] 	[nm-1]	[nm-1]	[counts/s]
6.1078	85.0726	0.46	0.10	-30.00	-20.00	7.373	5.21181	7.06177	0.0
6.1278	85.1126	0.46	0.10	-30.00	-20.00	7.373	5.21379	7.06445	2.0
6.1478	85.1526	0.46	0.10	-30.00	-20.00	7.373	5.21577	7.06714	0.0
6.1678	85.1926	0.46	0.10	-30.00	-20.00	7.373	5.21775	7.06982	2.0
6.1878	85.2326	0.46	0.10	-30.00	-20.00	7.373	5.21974	7.07251	0.0
6.2078	85.2726	0.46	0.10	-30.00	-20.00	7.373	5.22172	7.07519	0.0
6.2278	85.3126	0.46	0.10	-30.00	-20.00	7.373	5.22369	7.07787	0.0
6.2478	85.3526	0.46	0.10	-30.00	-20.00	7.373	5.22567	7.08055	2.0
6.2678	85.3926	0.46	0.10	-30.00	-20.00	7.373	5.22765	7.08323	2.0
6.2878	85.4326	0.46	0.10	-30.00	-20.00	7.373	5.22963	7.08591	0.0
6.3078	85.4726	0.46	0.10	-30.00	-20.00	7.373	5.23161	7.08859	0.0
6.3278	85.5126	0.46	0.10	-30.00	-20.00	7.373	5.23358	7.09127	6.0
6.3478	85.5526	0.46	0.10	-30.00	-20.00	7.373	5.23556	7.09395	0.0
6.3678	85.5926	0.46	0.10	-30.00	-20.00	7.373	5.23753	7.09662	2.0
6.3878	85.6326	0.46	0.10	-30.00	-20.00	7.373	5.23951	7.09930	2.0
6.4078	85.6726	0.46	0.10	-30.00	-20.00	7.373	5.24148	7.10197	0.0
6.4278	85.7126	0.46	0.10	-30.00	-20.00	7.373	5.24345	7.10464	4.0
6.4478	85.7526	0.46	0.10	-30.00	-20.00	7.373	5.24543	7.10732	0.0
6.4678	85.7926	0.46	0.10	-30.00	-20.00	7.373	5.24740	7.10999	0.0
6.4878	85.8326	0.46	0.10	-30.00	-20.00	7.373	5.24937	7.11266	2.0
6.5078	85.8726	0.46	0.10	-30.00	-20.00	7.373	5.25134	7.11533	0.0
6.5278	85.9126	0.46	0.10	-30.00	-20.00	7.373	5.25331	7.11800	0.0
6.5478	85.9526	0.46	0.10	-30.00	-20.00	7.373	5.25528	7.12067	2.0
6.5678	85.9926	0.46	0.10	-30.00	-20.00	7.373	5.25725	7.12333	0.0
6.5878	86.0326	0.46	0.10	-30.00	-20.00	7.373	5.25921	7.12600	0.0
6.6078	86.0726	0.46	0.10	-30.00	-20.00	7.373	5.26118	7.12867	0.0
6.6278	86.1126	0.46	0.10	-30.00	-20.00	7.373	5.26315	7.13133	0.0
6.6478	86.1526	0.46	0.10	-30.00	-20.00	7.373	5.26511	7.13399	0.0
6.6678	86.1926	0.46	0.10	-30.00	-20.00	7.373	5.26708	7.13666	0.0
6.6878	86.2326	0.46	0.10	-30.00	-20.00	7.373	5.26904	7.13932	2.0
6.7078	86.2726	0.46	0.10	-30.00	-20.00	7.373	5.27101	7.14198	4.0
6.7278	86.3126	0.46	0.10	-30.00	-20.00	7.373	5.27297	7.14464	4.0
6.7478	86.3526	0.46	0.10	-30.00	-20.00	7.373	5.27493	7.14730	0.0
6.7678	86.3926	0.46	0.10	-30.00	-20.00	7.373	5.27690	7.14996	4.0
6.7878	86.4326	0.46	0.10	-30.00	-20.00	7.373	5.27886	7.15262	0.0
6.8078	86.4726	0.46	0.10	-30.00	-20.00	7.373	5.28082	7.15527	6.0
6.8278	86.5126	0.46	0.10	-30.00	-20.00	7.373	5.28278	7.15793	0.0
6.8478	86.5526	0.46	0.10	-30.00	-20.00	7.373	5.28474	7.16058	2.0
6.8678	86.5926	0.46	0.10	-30.00	-20.00	7.373	5.28670	7.16324	0.0
6.8878	86.6326	0.46	0.10	-30.00	-20.00	7.373	5.28865	7.16589	4.0
6.9078	86.6726	0.46	0.10	-30.00	-20.00	7.373	5.29061	7.16854	0.0
6.9278	86.7126	0.46	0.10	-30.00	-20.00	7.373	5.29257	7.17120	0.0
6.9478	86.7526	0.46	0.10	-30.00	-20.00	7.373	5.29453	7.17385	2.0
6.9678	86.7926	0.46	0.10	-30.00	-20.00	7.373	5.29648	7.17650	0.0
6.9878	86.8326	0.46	0.10	-30.00	-20.00	7.373	5.29844	7.17914	2.0
7.0078	86.8726	0.46	0.10	-30.00	-20.00	7.373	5.30039	7.18179	6.0
7.0278	86.9126	0.46	0.10	-30.00	-20.00	7.373	5.30234	7.18444	0.0
7.0478	86.9526	0.46	0.10	-30.00	-20.00	7.373	5.30430	7.18709	0.0
7.0678	86.9926	0.46	0.10	-30.00	-20.00	7.373	5.30625	7.18973	2.0
7.0878	87.0326	0.46	0.10	-30.00	-20.00	7.373	5.30820	7.19238	0.0
7.1078	87.0726	0.46	0.10	-30.00	-20.00	7.373	5.31015	7.19502	2.0
7.1278	87.1126	0.46	0.10	-30.00	-20.00	7.373	5.31210	7.19766	0.0
7.1478	87.1526	0.46	0.10	-30.00	-20.00	7.373	5.31405	7.20030	4.0
7.1678	87.1926	0.46	0.10	-30.00	-20.00	7.373	5.31600	7.20295	0.0
7.1878	87.2326	0.46	0.10	-30.00	-20.00	7.373	5.31795	7.20559	0.0
7.2078	87.2726	0.46	0.10	-30.00	-20.00	7.373	5.31990	7.20823	0.0
7.2278	87.3126	0.46	0.10	-30.00	-20.00	7.373	5.32185	7.21086	4.0
7.2478	87.3526	0.46	0.10	-30.00	-20.00	7.373	5.32379	7.21350	0.0
7.2678	87.3926	0.46	0.10	-30.00	-20.00	7.373	5.32574	7.21614	2.0
7.2878	87.4326	0.46	0.10	-30.00	-20.00	7.373	5.32768	7.21877	0.0
7.3078	87.4726	0.46	0.10	-30.00	-20.00	7.373	5.32963	7.22141	2.0
7.3278	87.5126	0.46	0.10	-30.00	-20.00	7.373	5.33157	7.22404	2.0
7.3478	87.5526	0.46	0.10	-30.00	-20.00	7.373	5.33352	7.22668	2.0
7.3678	87.5926	0.46	0.10	-30.00	-20.00	7.373	5.33546	7.22931	2.0
7.3878	87.6326	0.46	0.10	-30.00	-20.00	7.373	5.33740	7.23194	2.0
7.4078	87.6726	0.46	0.10	-30.00	-20.00	7.373	5.33934	7.23457	2.0
7.4278	87.7126	0.46	0.10	-30.00	-20.00	7.373	5.34128	7.23720	0.0
7.4478	87.7526	0.46	0.10	-30.00	-20.00	7.373	5.34322	7.23983	0.0
7.4678	87.7926	0.46	0.10	-30.00	-20.00	7.373	5.34516	7.24246	0.0
7.4878	87.8326	0.46	0.10	-30.00	-20.00	7.373	5.34710	7.24508	0.0
7.5078	87.8726	0.46	0.10	-30.00	-20.00	7.373	5.34904	7.24771	2.0
7.5278	87.9126	0.46	0.10	-30.00	-20.00	7.373	5.35098	7.25033	0.0
7.5478	87.9526	0.46	0.10	-30.00	-20.00	7.373	5.35291	7.25296	2.0
7.5678	87.9926	0.46	0.10	-30.00	-20.00	7.373	5.35485	7.25558	2.0
7.5878	88.0326	0.46	0.10	-30.00	-20.00	7.373	5.35678	7.25820	2.0
7.6078	88.0726	0.46	0.10	-30.00	-20.00	7.373	5.35872	7.26083	0.0
7.6278	88.1126	0.46	0.10	-30.00	-20.00	7.373	5.36065	7.26345	2.0
7.6478	88.1526	0.46	0.10	-30.00	-20.00	7.373	5.36259	7.26607	0.0
7.6678	88.1926	0.46	0.10	-30.00	-20.00	7.373	5.36452	7.26869	2.0
7.6878	88.2326	0.46	0.10	-30.00	-20.00	7.373	5.36645	7.27130	0.0
7.7078	88.2726	0.46	0.10	-30.00	-20.00	7.373	5.36838	7.27392	0.0
7.7278	88.3126	0.46	0.10	-30.00	-20.00	7.373	5.37032	7.27654	0.0
7.7478	88.3526	0.46	0.10	-30.00	-20.00	7.373	5.37225	7.27915	0.0
7.7678	88.3926	0.46	0.10	-30.00	-20.00	7.373	5.37418	7.28177	2.0
7.7878	88.4326	0.46	0.10	-30.00	-20.00	7.373	5.37610	7.28438	2.0
7.8078	88.4726	0.46	0.10	-30.00	-20.00	7.373	5.37803	7.28699	2.0
7.8278	88.5126	0.46	0.10	-30.00	-20.00	7.373	5.37996	7.28961	0.0
7.8478	88.5526	0.46	0.10	-30.00	-20.00	7.373	5.38189	7.29222	0.0
7.8678	88.5926	0.46	0.10	-30.00	-20.00	7.373	5.38381	7.29483	0.0
7.8878	88.6326	0.46	0.10	-30.00	-20.00	7.373	5.38574	7.29744	8.0
7.9078	88.6726	0.46	0.10	-30.00	-20.00	7.373	5.38766	7.30005	2.0
7.9278	88.7126	0.46	0.10	-30.00	-20.00	7.373	5.38959	7.30265	2.0
7.9478	88.7526	0.46	0.10	-30.00	-20.00	7.373	5.39151	7.30526	0.0
7.9678	88.7926	0.46	0.10	-30.00	-20.00	7.373	5.39344	7.30787	2.0
7.9878	88.8326	0.46	0.10	-30.00	-20.00	7.373	5.39536	7.31047	0.0
8.0078	88.8726	0.46	0.10	-30.00	-20.00	7.373	5.39728	7.31307	0.0
8.0278	88.9126	0.46	0.10	-30.00	-20.00	7.373	5.39920	7.31568	2.0
8.0478	88.9526	0.46	0.10	-30.00	-20.00	7.373	5.40112	7.31828	0.0
8.0678	88.9926	0.46	0.10	-30.00	-20.00	7.373	5.40304	7.32088	2.0
8.0878	89.0326	0.46	0.10	-30.00	-20.00	7.373	5.40496	7.32348	0.0

6.1278	85.0726	0.46	0.10	-30.00	-20.00	7.373	5.20934	7.06359	4.0
6.1478	85.1126	0.46	0.10	-30.00	-20.00	7.373	5.21132	7.06627	0.0
6.1678	85.1526	0.46	0.10	-30.00	-20.00	7.373	5.21331	7.06896	2.0
6.1878	85.1926	0.46	0.10	-30.00	-20.00	7.373	5.21529	7.07165	0.0
6.2078	85.2326	0.46	0.10	-30.00	-20.00	7.373	5.21727	7.07433	4.0
6.2278	85.2726	0.46	0.10	-30.00	-20.00	7.373	5.21924	7.07701	0.0
6.2478	85.3126	0.46	0.10	-30.00	-20.00	7.373	5.22122	7.07970	0.0
6.2678	85.3526	0.46	0.10	-30.00	-20.00	7.373	5.22320	7.08238	0.0
6.2878	85.3926	0.46	0.10	-30.00	-20.00	7.373	5.22518	7.08506	0.0
6.3078	85.4326	0.46	0.10	-30.00	-20.00	7.373	5.22715	7.08774	0.0
6.3278	85.4726	0.46	0.10	-30.00	-20.00	7.373	5.22913	7.09042	0.0
6.3478	85.5126	0.46	0.10	-30.00	-20.00	7.373	5.23111	7.09310	4.0
6.3678	85.5526	0.46	0.10	-30.00	-20.00	7.373	5.23308	7.09577	2.0
6.3878	85.5926	0.46	0.10	-30.00	-20.00	7.373	5.23505	7.09845	2.0
6.4078	85.6326	0.46	0.10	-30.00	-20.00	7.373	5.23703	7.10113	0.0
6.4278	85.6726	0.46	0.10	-30.00	-20.00	7.373	5.23900	7.10380	2.0
6.4478	85.7126	0.46	0.10	-30.00	-20.00	7.373	5.24097	7.10647	0.0
6.4678	85.7526	0.46	0.10	-30.00	-20.00	7.373	5.24294	7.10915	4.0
6.4878	85.7926	0.46	0.10	-30.00	-20.00	7.373	5.24491	7.11182	2.0
6.5078	85.8326	0.46	0.10	-30.00	-20.00	7.373	5.24688	7.11449	2.0
6.5278	85.8726	0.46	0.10	-30.00	-20.00	7.373	5.24885	7.11716	2.0
6.5478	85.9126	0.46	0.10	-30.00	-20.00	7.373	5.25082	7.11983	4.0
6.5678	85.9526	0.46	0.10	-30.00	-20.00	7.373	5.25279	7.12250	0.0
6.5878	85.9926	0.46	0.10	-30.00	-20.00	7.373	5.25476	7.12517	2.0
6.6078	86.0326	0.46	0.10	-30.00	-20.00	7.373	5.25673	7.12784	0.0
6.6278	86.0726	0.46	0.10	-30.00	-20.00	7.373	5.25869	7.13050	0.0
6.6478	86.1126	0.46	0.10	-30.00	-20.00	7.373	5.26066	7.13317	0.0
6.6678	86.1526	0.46	0.10	-30.00	-20.00	7.373	5.26262	7.13583	4.0
6.6878	86.1926	0.46	0.10	-30.00	-20.00	7.373	5.26459	7.13850	4.0
6.7078	86.2326	0.46	0.10	-30.00	-20.00	7.373	5.26655	7.14116	0.0
6.7278	86.2726	0.46	0.10	-30.00	-20.00	7.373	5.26851	7.14382	2.0
6.7478	86.3126	0.46	0.10	-30.00	-20.00	7.373	5.27048	7.14648	2.0
6.7678	86.3526	0.46	0.10	-30.00	-20.00	7.373	5.27244	7.14914	2.0
6.7878	86.3926	0.46	0.10	-30.00	-20.00	7.373	5.27440	7.15180	2.0
6.8078	86.4326	0.46	0.10	-30.00	-20.00	7.373	5.27636	7.15446	2.0
6.8278	86.4726	0.46	0.10	-30.00	-20.00	7.373	5.27832	7.15712	2.0
6.8478	86.5126	0.46	0.10	-30.00	-20.00	7.373	5.28028	7.15977	2.0
6.8678	86.5526	0.46	0.10	-30.00	-20.00	7.373	5.28224	7.16243	2.0
6.8878	86.5926	0.46	0.10	-30.00	-20.00	7.373	5.28420	7.16508	0.0
6.9078	86.6326	0.46	0.10	-30.00	-20.00	7.373	5.28615	7.16774	2.0
6.9278	86.6726	0.46	0.10	-30.00	-20.00	7.373	5.28811	7.17039	2.0
6.9478	86.7126	0.46	0.10	-30.00	-20.00	7.373	5.29007	7.17304	4.0
6.9678	86.7526	0.46	0.10	-30.00	-20.00	7.373	5.29202	7.17569	4.0
6.9878	86.7926	0.46	0.10	-30.00	-20.00	7.373	5.29398	7.17834	2.0
7.0078	86.8326	0.46	0.10	-30.00	-20.00	7.373	5.29593	7.18099	2.0
7.0278	86.8726	0.46	0.10	-30.00	-20.00	7.373	5.29788	7.18364	0.0
7.0478	86.9126	0.46	0.10	-30.00	-20.00	7.373	5.29984	7.18629	2.0
7.0678	86.9526	0.46	0.10	-30.00	-20.00	7.373	5.30179	7.18894	0.0
7.0878	86.9926	0.46	0.10	-30.00	-20.00	7.373	5.30374	7.19158	4.0
7.1078	87.0326	0.46	0.10	-30.00	-20.00	7.373	5.30569	7.19423	0.0
7.1278	87.0726	0.46	0.10	-30.00	-20.00	7.373	5.30764	7.19687	2.0
7.1478	87.1126	0.46	0.10	-30.00	-20.00	7.373	5.30959	7.19952	6.0
7.1678	87.1526	0.46	0.10	-30.00	-20.00	7.373	5.31154	7.20216	2.0
7.1878	87.1926	0.46	0.10	-30.00	-20.00	7.373	5.31349	7.20480	2.0
7.2078	87.2326	0.46	0.10	-30.00	-20.00	7.373	5.31544	7.20744	4.0
7.2278	87.2726	0.46	0.10	-30.00	-20.00	7.373	5.31738	7.21008	0.0
7.2478	87.3126	0.46	0.10	-30.00	-20.00	7.373	5.31933	7.21272	4.0
7.2678	87.3526	0.46	0.10	-30.00	-20.00	7.373	5.32127	7.21536	2.0
7.2878	87.3926	0.46	0.10	-30.00	-20.00	7.373	5.32322	7.21800	0.0
7.3078	87.4326	0.46	0.10	-30.00	-20.00	7.373	5.32516	7.22063	4.0
7.3278	87.4726	0.46	0.10	-30.00	-20.00	7.373	5.32711	7.22327	0.0
7.3478	87.5126	0.46	0.10	-30.00	-20.00	7.373	5.32905	7.22590	6.0
7.3678	87.5526	0.46	0.10	-30.00	-20.00	7.373	5.33099	7.22854	0.0
7.3878	87.5926	0.46	0.10	-30.00	-20.00	7.373	5.33293	7.23117	4.0
7.4078	87.6326	0.46	0.10	-30.00	-20.00	7.373	5.33488	7.23380	0.0
7.4278	87.6726	0.46	0.10	-30.00	-20.00	7.373	5.33682	7.23643	0.0
7.4478	87.7126	0.46	0.10	-30.00	-20.00	7.373	5.33876	7.23906	0.0
7.4678	87.7526	0.46	0.10	-30.00	-20.00	7.373	5.34070	7.24169	0.0
7.4878	87.7926	0.46	0.10	-30.00	-20.00	7.373	5.34263	7.24432	0.0
7.5078	87.8326	0.46	0.10	-30.00	-20.00	7.373	5.34457	7.24695	0.0
7.5278	87.8726	0.46	0.10	-30.00	-20.00	7.373	5.34651	7.24958	0.0
7.5478	87.9126	0.46	0.10	-30.00	-20.00	7.373	5.34845	7.25220	2.0
7.5678	87.9526	0.46	0.10	-30.00	-20.00	7.373	5.35038	7.25483	0.0
7.5878	87.9926	0.46	0.10	-30.00	-20.00	7.373	5.35232	7.25745	2.0
7.6078	88.0326	0.46	0.10	-30.00	-20.00	7.373	5.35425	7.26007	0.0
7.6278	88.0726	0.46	0.10	-30.00	-20.00	7.373	5.35619	7.26270	0.0
7.6478	88.1126	0.46	0.10	-30.00	-20.00	7.373	5.35812	7.26532	2.0
7.6678	88.1526	0.46	0.10	-30.00	-20.00	7.373	5.36005	7.26794	2.0
7.6878	88.1926	0.46	0.10	-30.00	-20.00	7.373	5.36198	7.27056	0.0
7.7078	88.2326	0.46	0.10	-30.00	-20.00	7.373	5.36391	7.27318	2.0
7.7278	88.2726	0.46	0.10	-30.00	-20.00	7.373	5.36585	7.27580	0.0
7.7478	88.3126	0.46	0.10	-30.00	-20.00	7.373	5.36778	7.27841	0.0
7.7678	88.3526	0.46	0.10	-30.00	-20.00	7.373	5.36970	7.28103	0.0
7.7878	88.3926	0.46	0.10	-30.00	-20.00	7.373	5.37163	7.28364	0.0
7.8078	88.4326	0.46	0.10	-30.00	-20.00	7.373	5.37356	7.28626	0.0
7.8278	88.4726	0.46	0.10	-30.00	-20.00	7.373	5.37549	7.28887	2.0
7.8478	88.5126	0.46	0.10	-30.00	-20.00	7.373	5.37742	7.29148	0.0
7.8678	88.5526	0.46	0.10	-30.00	-20.00	7.373	5.37934	7.29410	0.0
7.8878	88.5926	0.46	0.10	-30.00	-20.00	7.373	5.38127	7.29671	2.0
7.9078	88.6326	0.46	0.10	-30.00	-20.00	7.373	5.38319	7.29932	0.0
7.9278	88.6726	0.46	0.10	-30.00	-20.00	7.373	5.38512	7.30193	4.0
7.9478	88.7126	0.46	0.10	-30.00	-20.00	7.373	5.38704	7.30453	0.0
7.9678	88.7526	0.46	0.10	-30.00	-20.00	7.373	5.38896	7.30714	0.0
7.9878	88.7926	0.46	0.10	-30.00	-20.00	7.373	5.39088	7.30975	2.0
8.0078	88.8326	0.46	0.10	-30.00	-20.00	7.373	5.39281	7.31235	0.0
8.0278	88.8726	0.46	0.10	-30.00	-20.00	7.373	5.39473	7.31496	0.0
8.0478	88.9126	0.46	0.10	-30.00	-20.00	7.373	5.39665	7.31756	4.0
8.0678	88.9526	0.46	0.10	-30.00	-20.00	7.373	5.39857	7.32016	4.0
8.0878	88.9926	0.46	0.10	-30.00	-20.00	7.373	5.40049	7.32277	0.0
8.1078	89.0326	0.46	0.10	-30.00	-20.00	7.373	5.40240	7.32537	2.0

6.1478	85.0726	0.46	0.10	-30.00	-20.00	7.373	5.20688	7.06541	0.0
6.1678	85.1126	0.46	0.10	-30.00	-20.00	7.373	5.20886	7.06809	4.0
6.1878	85.1526	0.46	0.10	-30.00	-20.00	7.373	5.21084	7.07078	4.0
6.2078	85.1926	0.46	0.10	-30.00	-20.00	7.373	5.21282	7.07347	2.0
6.2278	85.2326	0.46	0.10	-30.00	-20.00	7.373	5.21480	7.07615	0.0
6.2478	85.2726	0.46	0.10	-30.00	-20.00	7.373	5.21677	7.07883	2.0
6.2678	85.3126	0.46	0.10	-30.00	-20.00	7.373	5.21875	7.08152	0.0
6.2878	85.3526	0.46	0.10	-30.00	-20.00	7.373	5.22073	7.08420	4.0
6.3078	85.3926	0.46	0.10	-30.00	-20.00	7.373	5.22270	7.08688	6.0
6.3278	85.4326	0.46	0.10	-30.00	-20.00	7.373	5.22468	7.08956	4.0
6.3478	85.4726	0.46	0.10	-30.00	-20.00	7.373	5.22666	7.09224	6.0
6.3678	85.5126	0.46	0.10	-30.00	-20.00	7.373	5.22863	7.09492	2.0
6.3878	85.5526	0.46	0.10	-30.00	-20.00	7.373	5.23060	7.09760	0.0
6.4078	85.5926	0.46	0.10	-30.00	-20.00	7.373	5.23258	7.10028	0.0
6.4278	85.6326	0.46	0.10	-30.00	-20.00	7.373	5.23455	7.10295	0.0
6.4478	85.6726	0.46	0.10	-30.00	-20.00	7.373	5.23652	7.10563	2.0
6.4678	85.7126	0.46	0.10	-30.00	-20.00	7.373	5.23849	7.10830	0.0
6.4878	85.7526	0.46	0.10	-30.00	-20.00	7.373	5.24046	7.11098	2.0
6.5078	85.7926	0.46	0.10	-30.00	-20.00	7.373	5.24243	7.11365	4.0
6.5278	85.8326	0.46	0.10	-30.00	-20.00	7.373	5.24440	7.11632	0.0
6.5478	85.8726	0.46	0.10	-30.00	-20.00	7.373	5.24637	7.11899	2.0
6.5678	85.9126	0.46	0.10	-30.00	-20.00	7.373	5.24834	7.12166	2.0
6.5878	85.9526	0.46	0.10	-30.00	-20.00	7.373	5.25030	7.12433	0.0
6.6078	85.9926	0.46	0.10	-30.00	-20.00	7.373	5.25227	7.12700	0.0
6.6278	86.0326	0.46	0.10	-30.00	-20.00	7.373	5.25424	7.12967	0.0
6.6478	86.0726	0.46	0.10	-30.00	-20.00	7.373	5.25620	7.13234	2.0
6.6678	86.1126	0.46	0.10	-30.00	-20.00	7.373	5.25817	7.13500	0.0
6.6878	86.1526	0.46	0.10	-30.00	-20.00	7.373	5.26013	7.13767	2.0
6.7078	86.1926	0.46	0.10	-30.00	-20.00	7.373	5.26210	7.14033	0.0
6.7278	86.2326	0.46	0.10	-30.00	-20.00	7.373	5.26406	7.14300	0.0
6.7478	86.2726	0.46	0.10	-30.00	-20.00	7.373	5.26602	7.14566	2.0
6.7678	86.3126	0.46	0.10	-30.00	-20.00	7.373	5.26798	7.14832	0.0
6.7878	86.3526	0.46	0.10	-30.00	-20.00	7.373	5.26994	7.15098	2.0
6.8078	86.3926	0.46	0.10	-30.00	-20.00	7.373	5.27190	7.15364	2.0
6.8278	86.4326	0.46	0.10	-30.00	-20.00	7.373	5.27386	7.15630	0.0
6.8478	86.4726	0.46	0.10	-30.00	-20.00	7.373	5.27582	7.15896	2.0
6.8678	86.5126	0.46	0.10	-30.00	-20.00	7.373	5.27778	7.16162	2.0
6.8878	86.5526	0.46	0.10	-30.00	-20.00	7.373	5.27974	7.16427	4.0
6.9078	86.5926	0.46	0.10	-30.00	-20.00	7.373	5.28169	7.16693	0.0
6.9278	86.6326	0.46	0.10	-30.00	-20.00	7.373	5.28365	7.16958	2.0
6.9478	86.6726	0.46	0.10	-30.00	-20.00	7.373	5.28561	7.17224	0.0
6.9678	86.7126	0.46	0.10	-30.00	-20.00	7.373	5.28756	7.17489	0.0
6.9878	86.7526	0.46	0.10	-30.00	-20.00	7.373	5.28952	7.17754	0.0
7.0078	86.7926	0.46	0.10	-30.00	-20.00	7.373	5.29147	7.18019	0.0
7.0278	86.8326	0.46	0.10	-30.00	-20.00	7.373	5.29342	7.18284	0.0
7.0478	86.8726	0.46	0.10	-30.00	-20.00	7.373	5.29538	7.18549	2.0
7.0678	86.9126	0.46	0.10	-30.00	-20.00	7.373	5.29733	7.18814	4.0
7.0878	86.9526	0.46	0.10	-30.00	-20.00	7.373	5.29928	7.19079	4.0
7.1078	86.9926	0.46	0.10	-30.00	-20.00	7.373	5.30123	7.19343	2.0
7.1278	87.0326	0.46	0.10	-30.00	-20.00	7.373	5.30318	7.19608	0.0
7.1478	87.0726	0.46	0.10	-30.00	-20.00	7.373	5.30513	7.19873	2.0
7.1678	87.1126	0.46	0.10	-30.00	-20.00	7.373	5.30708	7.20137	2.0
7.1878	87.1526	0.46	0.10	-30.00	-20.00	7.373	5.30902	7.20401	2.0
7.2078	87.1926	0.46	0.10	-30.00	-20.00	7.373	5.31097	7.20666	2.0
7.2278	87.2326	0.46	0.10	-30.00	-20.00	7.373	5.31292	7.20930	0.0
7.2478	87.2726	0.46	0.10	-30.00	-20.00	7.373	5.31486	7.21194	0.0
7.2678	87.3126	0.46	0.10	-30.00	-20.00	7.373	5.31681	7.21458	6.0
7.2878	87.3526	0.46	0.10	-30.00	-20.00	7.373	5.31876	7.21722	2.0
7.3078	87.3926	0.46	0.10	-30.00	-20.00	7.373	5.32070	7.21985	2.0
7.3278	87.4326	0.46	0.10	-30.00	-20.00	7.373	5.32264	7.22249	4.0
7.3478	87.4726	0.46	0.10	-30.00	-20.00	7.373	5.32459	7.22513	2.0
[...]
9.4278	87.7526	0.46	0.10	-30.00	-20.00	7.373	5.08989	7.42012	2.0
9.4478	87.7926	0.46	0.10	-30.00	-20.00	7.373	5.09174	7.42281	2.0
9.4678	87.8326	0.46	0.10	-30.00	-20.00	7.373	5.09359	7.42550	4.0
9.4878	87.8726	0.46	0.10	-30.00	-20.00	7.373	5.09543	7.42819	2.0
9.5078	87.9126	0.46	0.10	-30.00	-20.00	7.373	5.09728	7.43089	2.0
9.5278	87.9526	0.46	0.10	-30.00	-20.00	7.373	5.09912	7.43358	0.0
9.5478	87.9926	0.46	0.10	-30.00	-20.00	7.373	5.10097	7.43626	4.0
9.5678	88.0326	0.46	0.10	-30.00	-20.00	7.373	5.10281	7.43895	0.0
9.5878	88.0726	0.46	0.10	-30.00	-20.00	7.373	5.10465	7.44164	0.0
9.6078	88.1126	0.46	0.10	-30.00	-20.00	7.373	5.10650	7.44432	4.0
9.6278	88.1526	0.46	0.10	-30.00	-20.00	7.373	5.10834	7.44701	0.0
9.6478	88.1926	0.46	0.10	-30.00	-20.00	7.373	5.11018	7.44969	6.0
9.6678	88.2326	0.46	0.10	-30.00	-20.00	7.373	5.11202	7.45238	2.0
9.6878	88.2726	0.46	0.10	-30.00	-20.00	7.373	5.11386	7.45506	2.0
9.7078	88.3126	0.46	0.10	-30.00	-20.00	7.373	5.11570	7.45774	0.0
9.7278	88.3526	0.46	0.10	-30.00	-20.00	7.373	5.11754	7.46042	2.0
9.7478	88.3926	0.46	0.10	-30.00	-20.00	7.373	5.11938	7.46310	4.0
9.7678	88.4326	0.46	0.10	-30.00	-20.00	7.373	5.12121	7.46578	2.0
9.7878	88.4726	0.46	0.10	-30.00	-20.00	7.373	5.12305	7.46846	2.0
9.8078	88.5126	0.46	0.10	-30.00	-20.00	7.373	5.12489	7.47114	4.0
9.8278	88.5526	0.46	0.10	-30.00	-20.00	7.373	5.12672	7.47381	6.0
9.8478	88.5926	0.46	0.10	-30.00	-20.00	7.373	5.12856	7.47649	2.0
9.8678	88.6326	0.46	0.10	-30.00	-20.00	7.373	5.13039	7.47916	0.0
9.8878	88.6726	0.46	0.10	-30.00	-20.00	7.373	5.13223	7.48183	0.0
9.9078	88.7126	0.46	0.10	-30.00	-20.00	7.373	5.13406	7.48451	4.0
9.9278	88.7526	0.46	0.10	-30.00	-20.00	7.373	5.13589	7.48718	2.0
9.9478	88.7926	0.46	0.10	-30.00	-20.00	7.373	5.13772	7.48985	0.0
9.9678	88.8326	0.46	0.10	-30.00	-20.00	7.373	5.13956	7.49252	0.0
9.9878	88.8726	0.46	0.10	-30.00	-20.00	7.373	5.14139	7.49519	2.0
10.0078	88.9126	0.46	0.10	-30.00	-20.00	7.373	5.14322	7.49785	0.0
10.0278	88.9526	0.46	0.10	-30.00	-20.00	7.373	5.14505	7.50052	0.0
10.0478	88.9926	0.46	0.10	-30.00	-20.00	7.373	5.14687	7.50319	0.0
10.0678	89.0326	0.46	0.10	-30.00	-20.00	7.373	5.14870	7.50585	2.0

8.1078	85.0726	0.46	0.10	-30.00	-20.00	7.373	4.96218	7.23936	0.0
8.1278	85.1126	0.46	0.10	-30.00	-20.00	7.373	4.96407	7.24211	0.0
8.1478	85.1526	0.46	0.10	-30.00	-20.00	7.373	4.96596	7.24486	2.0
8.1678	85.1926	0.46	0.10	-30.00	-20.00	7.373	4.96784	7.24761	0.0
8.1878	85.2326	0.46	0.10	-30.00	-20.00	7.373	4.96973	7.25037	0.0
8.2078	85.2726	0.46	0.10	-30.00	-20.00	7.373	4.97161	7.25312	0.0
8.2278	85.3126	0.46	0.10	-30.00	-20.00	7.373	4.97350	7.25587	2.0
8.2478	85.3526	0.46	0.10	-30.00	-20.00	7.373	4.97538	7.25861	10.0
8.2678	85.3926	0.46	0.10	-30.00	-20.00	7.373	4.97727	7.26136	0.0
8.2878	85.4326	0.46	0.10	-30.00	-20.00	7.373	4.97915	7.26411	2.0
8.3078	85.4726	0.46	0.10	-30.00	-20.00	7.373	4.98103	7.26685	2.0
8.3278	85.5126	0.46	0.10	-30.00	-20.00	7.373	4.98291	7.26960	0.0
8.3478	85.5526	0.46	0.10	-30.00	-20.00	7.373	4.98479	7.27234	0.0
8.3678	85.5926	0.46	0.10	-30.00	-20.00	7.373	4.98667	7.27509	6.0
8.3878	85.6326	0.46	0.10	-30.00	-20.00	7.373	4.98855	7.27783	2.0
8.4078	85.6726	0.46	0.10	-30.00	-20.00	7.373	4.99043	7.28057	2.0
8.4278	85.7126	0.46	0.10	-30.00	-20.00	7.373	4.99231	7.28331	0.0
8.4478	85.7526	0.46	0.10	-30.00	-20.00	7.373	4.99419	7.28605	4.0
8.4678	85.7926	0.46	0.10	-30.00	-20.00	7.373	4.99607	7.28879	2.0
8.4878	85.8326	0.46	0.10	-30.00	-20.00	7.373	4.99794	7.29153	4.0
8.5078	85.8726	0.46	0.10	-30.00	-20.00	7.373	4.99982	7.29426	2.0
8.5278	85.9126	0.46	0.10	-30.00	-20.00	7.373	5.00169	7.29700	2.0
8.5478	85.9526	0.46	0.10	-30.00	-20.00	7.373	5.00357	7.29974	6.0
8.5678	85.9926	0.46	0.10	-30.00	-20.00	7.373	5.00544	7.30247	2.0
8.5878	86.0326	0.46	0.10	-30.00	-20.00	7.373	5.00732	7.30520	0.0
8.6078	86.0726	0.46	0.10	-30.00	-20.00	7.373	5.00919	7.30794	2.0
8.6278	86.1126	0.46	0.10	-30.00	-20.00	7.373	5.01106	7.31067	2.0
8.6478	86.1526	0.46	0.10	-30.00	-20.00	7.373	5.01293	7.31340	0.0
8.6678	86.1926	0.46	0.10	-30.00	-20.00	7.373	5.01480	7.31613	2.0
8.6878	86.2326	0.46	0.10	-30.00	-20.00	7.373	5.01668	7.31886	0.0
8.7078	86.2726	0.46	0.10	-30.00	-20.00	7.373	5.01855	7.32158	2.0
8.7278	86.3126	0.46	0.10	-30.00	-20.00	7.373	5.02041	7.32431	0.0
8.7478	86.3526	0.46	0.10	-30.00	-20.00	7.373	5.02228	7.32704	2.0
8.7678	86.3926	0.46	0.10	-30.00	-20.00	7.373	5.02415	7.32976	2.0
8.7878	86.4326	0.46	0.10	-30.00	-20.00	7.373	5.02602	7.33249	4.0
8.8078	86.4726	0.46	0.10	-30.00	-20.00	7.373	5.02789	7.33521	2.0
8.8278	86.5126	0.46	0.10	-30.00	-20.00	7.373	5.02975	7.33793	0.0
8.8478	86.5526	0.46	0.10	-30.00	-20.00	7.373	5.03162	7.34066	4.0
8.8678	86.5926	0.46	0.10	-30.00	-20.00	7.373	5.03348	7.34338	0.0
8.8878	86.6326	0.46	0.10	-30.00	-20.00	7.373	5.03535	7.34610	0.0
8.9078	86.6726	0.46	0.10	-30.00	-20.00	7.373	5.03721	7.34882	2.0
8.9278	86.7126	0.46	0.10	-30.00	-20.00	7.373	5.03907	7.35153	0.0
8.9478	86.7526	0.46	0.10	-30.00	-20.00	7.373	5.04094	7.35425	2.0
8.9678	86.7926	0.46	0.10	-30.00	-20.00	7.373	5.04280	7.35697	2.0
8.9878	86.8326	0.46	0.10	-30.00	-20.00	7.373	5.04466	7.35968	0.0
9.0078	86.8726	0.46	0.10	-30.00	-20.00	7.373	5.04652	7.36240	2.0
9.0278	86.9126	0.46	0.10	-30.00	-20.00	7.373	5.04838	7.36511	0.0
9.0478	86.9526	0.46	0.10	-30.00	-20.00	7.373	5.05024	7.36783	2.0
9.0678	86.9926	0.46	0.10	-30.00	-20.00	7.373	5.05210	7.37054	2.0
9.0878	87.0326	0.46	0.10	-30.00	-20.00	7.373	5.05396	7.37325	2.0
9.1078	87.0726	0.46	0.10	-30.00	-20.00	7.373	5.05582	7.37596	2.0
9.1278	87.1126	0.46	0.10	-30.00	-20.00	7.373	5.05767	7.37867	6.0
9.1478	87.1526	0.46	0.10	-30.00	-20.00	7.373	5.05953	7.38138	0.0
9.1678	87.1926	0.46	0.10	-30.00	-20.00	7.373	5.06138	7.38408	8.0
9.1878	87.2326	0.46	0.10	-30.00	-20.00	7.373	5.06324	7.38679	2.0
9.2078	87.2726	0.46	0.10	-30.00	-20.00	7.373	5.06509	7.38950	4.0
9.2278	87.3126	0.46	0.10	-30.00	-20.00	7.373	5.06695	7.39220	2.0
9.2478	87.3526	0.46	0.10	-30.00	-20.00	7.373	5.06880	7.39490	2.0
9.2678	87.3926	0.46	0.10	-30.00	-20.00	7.373	5.07065	7.39761	2.0
9.2878	87.4326	0.46	0.10	-30.00	-20.00	7.373	5.07251	7.40031	4.0
9.3078	87.4726	0.46	0.10	-30.00	-20.00	7.373	5.07436	7.40301	2.0
9.3278	87.5126	0.46	0.10	-30.00	-20.00	7.373	5.07621	7.40571	2.0
9.3478	87.5526	0.46	0.10	-30.00	-20.00	7.373	5.07806	7.40841	2.0
9.3678	87.5926	0.46	0.10	-30.00	-20.00	7.373	5.07991	7.41111	0.0
9.3878	87.6326	0.46	0.10	-30.00	-20.00	7.373	5.08176	7.41381	4.0
9.4078	87.6726	0.46	0.10	-30.00	-20.00	7.373	5.08361	7.41650	2.0
9.4278	87.7126	0.46	0.10	-30.00	-20.00	7.373	5.08545	7.41920	0.0
9.4478	87.7526	0.46	0.10	-30.00	-20.00	7.373	5.08730	7.42189	0.0
9.4678	87.7926	0.46	0.10	-30.00	-20.00	7.373	5.08915	7.42459	0.0
9.4878	87.8326	0.46	0.10	-30.00	-20.00	7.373	5.09099	7.42728	0.0
9.5078	87.8726	0.46	0.10	-30.00	-20.00	7.373	5.09284	7.42997	2.0
9.5278	87.9126	0.46	0.10	-30.00	-20.00	7.373	5.09468	7.43266	2.0
9.5478	87.9526	0.46	0.10	-30.00	-20.00	7.373	5.09653	7.43535	0.0
9.5678	87.9926	0.46	0.10	-30.00	-20.00	7.373	5.09837	7.43804	4.0
9.5878	88.0326	0.46	0.10	-30.00	-20.00	7.373	5.10021	7.44073	2.0
9.6078	88.0726	0.46	0.10	-30.00	-20.00	7.373	5.10206	7.44342	2.0
9.6278	88.1126	0.46	0.10	-30.00	-20.00	7.373	5.10390	7.44611	2.0
9.6478	88.1526	0.46	0.10	-30.00	-20.00	7.373	5.10574	7.44879	0.0
9.6678	88.1926	0.46	0.10	-30.00	-20.00	7.373	5.10758	7.45148	0.0
9.6878	88.2326	0.46	0.10	-30.00	-20.00	7.373	5.10942	7.45416	0.0
9.7078	88.2726	0.46	0.10	-30.00	-20.00	7.373	5.11126	7.45684	4.0
9.7278	88.3126	0.46	0.10	-30.00	-20.00	7.373	5.11310	7.45953	2.0
9.7478	88.3526	0.46	0.10	-30.00	-20.00	7.373	5.11493	7.46221	4.0
9.7678	88.3926	0.46	0.10	-30.00	-20.00	7.373	5.11677	7.46489	0.0
9.7878	88.4326	0.46	0.10	-30.00	-20.00	7.373	5.11861	7.46757	0.0
9.8078	88.4726	0.46	0.10	-30.00	-20.00	7.373	5.12044	7.47025	0.0
9.8278	88.5126	0.46	0.10	-30.00	-20.00	7.373	5.12228	7.47292	0.0
9.8478	88.5526	0.46	0.10	-30.00	-20.00	7.373	5.12411	7.47560	0.0
9.8678	88.5926	0.46	0.10	-30.00	-20.00	7.373	5.12595	7.47828	2.0
9.8878	88.6326	0.46	0.10	-30.00	-20.00	7.373	5.12778	7.48095	2.0
9.9078	88.6726	0.46	0.10	-30.00	-20.00	7.373	5.12961	7.48363	2.0
9.9278	88.7126	0.46	0.10	-30.00	-20.00	7.373	5.13145	7.48630	4.0
9.9478	88.7526	0.46	0.10	-30.00	-20.00	7.373	5.13328	7.48897	0.0
9.9678	88.7926	0.46	0.10	-30.00	-20.00	7.373	5.13511	7.49164	2.0
9.9878	88.8326	0.46	0.10	-30.00	-20.00	7.373	5.13694	7.49431	0.0
10.0078	88.8726	0.46	0.10	-30.00	-20.00	7.373	5.13877	7.49698	4.0
10.0278	88.9126	0.46	0.10	-30.00	-20.00	7.373	5.14060	7.49965	2.0
10.0478	88.9526	0.46	0.10	-30.00	-20.00	7.373	5.14243	7.50232	0.0
10.0678	88.9926	0.46	0.10	-30.00	-20.00	7.373	5.14425	7.50498	0.0
10.0878	89.0326	0.46	0.10	-30.00	-20.00	7.373	5.14608	7.50765	0.0