File: Data/113xx/2.0deg-2.0deg-rsm-3h10m_11358-annealed_224.dat
# filename: /home/lepecvd/lepecvd/11358/xray/2.0deg-2.0deg-rsm-3h10m_11358-E4_224.xrdml
# reflection: ('2', '2', '4')
# type: Area measurement
# x-axis: Omega_2Theta
# y-axis: Omega
#
# Omega	2Theta	Phi  	Chi   	X    	Y    	Z    	q_para	q_perp	Intensity
# [deg]	[deg] 	[deg]	[deg] 	[mm] 	[mm] 	[mm] 	[nm-1]	[nm-1]	[counts/s]
6.1544	85.0724	-0.24	0.13	0.00	-23.01	7.396	5.20604	7.06600	0.0
6.1744	85.1124	-0.24	0.13	0.00	-23.01	7.396	5.20802	7.06869	6.0
6.1944	85.1524	-0.24	0.13	0.00	-23.01	7.396	5.21000	7.07138	2.0
6.2144	85.1924	-0.24	0.13	0.00	-23.01	7.396	5.21198	7.07406	0.0
6.2344	85.2324	-0.24	0.13	0.00	-23.01	7.396	5.21396	7.07675	2.0
6.2544	85.2724	-0.24	0.13	0.00	-23.01	7.396	5.21594	7.07943	0.0
6.2744	85.3124	-0.24	0.13	0.00	-23.01	7.396	5.21791	7.08211	0.0
6.2944	85.3524	-0.24	0.13	0.00	-23.01	7.396	5.21989	7.08480	0.0
6.3144	85.3924	-0.24	0.13	0.00	-23.01	7.396	5.22187	7.08748	0.0
6.3344	85.4324	-0.24	0.13	0.00	-23.01	7.396	5.22384	7.09016	0.0
6.3544	85.4724	-0.24	0.13	0.00	-23.01	7.396	5.22582	7.09284	0.0
6.3744	85.5124	-0.24	0.13	0.00	-23.01	7.396	5.22779	7.09552	2.0
6.3944	85.5524	-0.24	0.13	0.00	-23.01	7.396	5.22976	7.09820	0.0
6.4144	85.5924	-0.24	0.13	0.00	-23.01	7.396	5.23174	7.10088	2.0
6.4344	85.6324	-0.24	0.13	0.00	-23.01	7.396	5.23371	7.10355	0.0
6.4544	85.6724	-0.24	0.13	0.00	-23.01	7.396	5.23568	7.10623	2.0
6.4744	85.7124	-0.24	0.13	0.00	-23.01	7.396	5.23765	7.10890	2.0
6.4944	85.7524	-0.24	0.13	0.00	-23.01	7.396	5.23962	7.11158	2.0
6.5144	85.7924	-0.24	0.13	0.00	-23.01	7.396	5.24159	7.11425	2.0
6.5344	85.8324	-0.24	0.13	0.00	-23.01	7.396	5.24356	7.11692	4.0
6.5544	85.8724	-0.24	0.13	0.00	-23.01	7.396	5.24553	7.11959	0.0
6.5744	85.9124	-0.24	0.13	0.00	-23.01	7.396	5.24750	7.12226	0.0
6.5944	85.9524	-0.24	0.13	0.00	-23.01	7.396	5.24946	7.12493	0.0
6.6144	85.9924	-0.24	0.13	0.00	-23.01	7.396	5.25143	7.12760	0.0
6.6344	86.0324	-0.24	0.13	0.00	-23.01	7.396	5.25339	7.13027	0.0
6.6544	86.0724	-0.24	0.13	0.00	-23.01	7.396	5.25536	7.13294	2.0
6.6744	86.1124	-0.24	0.13	0.00	-23.01	7.396	5.25732	7.13560	4.0
6.6944	86.1524	-0.24	0.13	0.00	-23.01	7.396	5.25929	7.13827	2.0
6.7144	86.1924	-0.24	0.13	0.00	-23.01	7.396	5.26125	7.14093	0.0
6.7344	86.2324	-0.24	0.13	0.00	-23.01	7.396	5.26321	7.14360	0.0
6.7544	86.2724	-0.24	0.13	0.00	-23.01	7.396	5.26517	7.14626	2.0
6.7744	86.3124	-0.24	0.13	0.00	-23.01	7.396	5.26714	7.14892	0.0
6.7944	86.3524	-0.24	0.13	0.00	-23.01	7.396	5.26910	7.15158	2.0
6.8144	86.3924	-0.24	0.13	0.00	-23.01	7.396	5.27106	7.15424	0.0
6.8344	86.4324	-0.24	0.13	0.00	-23.01	7.396	5.27302	7.15690	0.0
6.8544	86.4724	-0.24	0.13	0.00	-23.01	7.396	5.27497	7.15956	2.0
6.8744	86.5124	-0.24	0.13	0.00	-23.01	7.396	5.27693	7.16222	0.0
6.8944	86.5524	-0.24	0.13	0.00	-23.01	7.396	5.27889	7.16488	0.0
6.9144	86.5924	-0.24	0.13	0.00	-23.01	7.396	5.28085	7.16753	6.0
6.9344	86.6324	-0.24	0.13	0.00	-23.01	7.396	5.28280	7.17019	2.0
6.9544	86.6724	-0.24	0.13	0.00	-23.01	7.396	5.28476	7.17284	2.0
6.9744	86.7124	-0.24	0.13	0.00	-23.01	7.396	5.28671	7.17549	0.0
6.9944	86.7524	-0.24	0.13	0.00	-23.01	7.396	5.28867	7.17815	0.0
7.0144	86.7924	-0.24	0.13	0.00	-23.01	7.396	5.29062	7.18080	2.0
7.0344	86.8324	-0.24	0.13	0.00	-23.01	7.396	5.29257	7.18345	2.0
7.0544	86.8724	-0.24	0.13	0.00	-23.01	7.396	5.29453	7.18610	0.0
7.0744	86.9124	-0.24	0.13	0.00	-23.01	7.396	5.29648	7.18875	2.0
7.0944	86.9524	-0.24	0.13	0.00	-23.01	7.396	5.29843	7.19139	0.0
7.1144	86.9924	-0.24	0.13	0.00	-23.01	7.396	5.30038	7.19404	4.0
7.1344	87.0324	-0.24	0.13	0.00	-23.01	7.396	5.30233	7.19669	0.0
7.1544	87.0724	-0.24	0.13	0.00	-23.01	7.396	5.30428	7.19933	2.0
7.1744	87.1124	-0.24	0.13	0.00	-23.01	7.396	5.30623	7.20198	0.0
7.1944	87.1524	-0.24	0.13	0.00	-23.01	7.396	5.30817	7.20462	0.0
7.2144	87.1924	-0.24	0.13	0.00	-23.01	7.396	5.31012	7.20726	0.0
7.2344	87.2324	-0.24	0.13	0.00	-23.01	7.396	5.31207	7.20990	0.0
7.2544	87.2724	-0.24	0.13	0.00	-23.01	7.396	5.31401	7.21255	2.0
7.2744	87.3124	-0.24	0.13	0.00	-23.01	7.396	5.31596	7.21519	0.0
7.2944	87.3524	-0.24	0.13	0.00	-23.01	7.396	5.31790	7.21783	6.0
7.3144	87.3924	-0.24	0.13	0.00	-23.01	7.396	5.31985	7.22046	4.0
7.3344	87.4324	-0.24	0.13	0.00	-23.01	7.396	5.32179	7.22310	4.0
7.3544	87.4724	-0.24	0.13	0.00	-23.01	7.396	5.32373	7.22574	0.0
7.3744	87.5124	-0.24	0.13	0.00	-23.01	7.396	5.32567	7.22837	0.0
7.3944	87.5524	-0.24	0.13	0.00	-23.01	7.396	5.32761	7.23101	2.0
7.4144	87.5924	-0.24	0.13	0.00	-23.01	7.396	5.32955	7.23364	0.0
7.4344	87.6324	-0.24	0.13	0.00	-23.01	7.396	5.33149	7.23627	0.0
7.4544	87.6724	-0.24	0.13	0.00	-23.01	7.396	5.33343	7.23891	2.0
7.4744	87.7124	-0.24	0.13	0.00	-23.01	7.396	5.33537	7.24154	0.0
7.4944	87.7524	-0.24	0.13	0.00	-23.01	7.396	5.33731	7.24417	2.0
7.5144	87.7924	-0.24	0.13	0.00	-23.01	7.396	5.33925	7.24680	0.0
7.5344	87.8324	-0.24	0.13	0.00	-23.01	7.396	5.34118	7.24943	4.0
7.5544	87.8724	-0.24	0.13	0.00	-23.01	7.396	5.34312	7.25205	0.0
7.5744	87.9124	-0.24	0.13	0.00	-23.01	7.396	5.34506	7.25468	4.0
7.5944	87.9524	-0.24	0.13	0.00	-23.01	7.396	5.34699	7.25731	0.0
7.6144	87.9924	-0.24	0.13	0.00	-23.01	7.396	5.34892	7.25993	0.0
7.6344	88.0324	-0.24	0.13	0.00	-23.01	7.396	5.35086	7.26256	2.0
7.6544	88.0724	-0.24	0.13	0.00	-23.01	7.396	5.35279	7.26518	2.0
7.6744	88.1124	-0.24	0.13	0.00	-23.01	7.396	5.35472	7.26780	4.0
7.6944	88.1524	-0.24	0.13	0.00	-23.01	7.396	5.35665	7.27042	4.0
7.7144	88.1924	-0.24	0.13	0.00	-23.01	7.396	5.35858	7.27304	2.0
7.7344	88.2324	-0.24	0.13	0.00	-23.01	7.396	5.36051	7.27566	0.0
7.7544	88.2724	-0.24	0.13	0.00	-23.01	7.396	5.36244	7.27828	2.0
7.7744	88.3124	-0.24	0.13	0.00	-23.01	7.396	5.36437	7.28090	2.0
7.7944	88.3524	-0.24	0.13	0.00	-23.01	7.396	5.36630	7.28352	0.0
7.8144	88.3924	-0.24	0.13	0.00	-23.01	7.396	5.36823	7.28613	0.0
7.8344	88.4324	-0.24	0.13	0.00	-23.01	7.396	5.37016	7.28875	0.0
7.8544	88.4724	-0.24	0.13	0.00	-23.01	7.396	5.37208	7.29136	0.0
7.8744	88.5124	-0.24	0.13	0.00	-23.01	7.396	5.37401	7.29398	2.0
7.8944	88.5524	-0.24	0.13	0.00	-23.01	7.396	5.37593	7.29659	0.0
7.9144	88.5924	-0.24	0.13	0.00	-23.01	7.396	5.37786	7.29920	0.0
7.9344	88.6324	-0.24	0.13	0.00	-23.01	7.396	5.37978	7.30181	0.0
7.9544	88.6724	-0.24	0.13	0.00	-23.01	7.396	5.38170	7.30442	0.0
7.9744	88.7124	-0.24	0.13	0.00	-23.01	7.396	5.38363	7.30703	2.0
7.9944	88.7524	-0.24	0.13	0.00	-23.01	7.396	5.38555	7.30964	0.0
8.0144	88.7924	-0.24	0.13	0.00	-23.01	7.396	5.38747	7.31225	8.0
8.0344	88.8324	-0.24	0.13	0.00	-23.01	7.396	5.38939	7.31485	0.0
8.0544	88.8724	-0.24	0.13	0.00	-23.01	7.396	5.39131	7.31746	4.0
8.0744	88.9124	-0.24	0.13	0.00	-23.01	7.396	5.39323	7.32006	0.0
8.0944	88.9524	-0.24	0.13	0.00	-23.01	7.396	5.39515	7.32267	0.0
8.1144	88.9924	-0.24	0.13	0.00	-23.01	7.396	5.39706	7.32527	2.0
8.1344	89.0324	-0.24	0.13	0.00	-23.01	7.396	5.39898	7.32787	2.0

6.1744	85.0724	-0.24	0.13	0.00	-23.01	7.396	5.20357	7.06782	0.0
6.1944	85.1124	-0.24	0.13	0.00	-23.01	7.396	5.20555	7.07051	4.0
6.2144	85.1524	-0.24	0.13	0.00	-23.01	7.396	5.20753	7.07319	0.0
6.2344	85.1924	-0.24	0.13	0.00	-23.01	7.396	5.20951	7.07588	2.0
6.2544	85.2324	-0.24	0.13	0.00	-23.01	7.396	5.21149	7.07857	2.0
6.2744	85.2724	-0.24	0.13	0.00	-23.01	7.396	5.21347	7.08125	2.0
6.2944	85.3124	-0.24	0.13	0.00	-23.01	7.396	5.21544	7.08394	6.0
6.3144	85.3524	-0.24	0.13	0.00	-23.01	7.396	5.21742	7.08662	2.0
6.3344	85.3924	-0.24	0.13	0.00	-23.01	7.396	5.21939	7.08930	0.0
6.3544	85.4324	-0.24	0.13	0.00	-23.01	7.396	5.22137	7.09198	4.0
6.3744	85.4724	-0.24	0.13	0.00	-23.01	7.396	5.22334	7.09466	0.0
6.3944	85.5124	-0.24	0.13	0.00	-23.01	7.396	5.22531	7.09734	2.0
6.4144	85.5524	-0.24	0.13	0.00	-23.01	7.396	5.22729	7.10002	2.0
6.4344	85.5924	-0.24	0.13	0.00	-23.01	7.396	5.22926	7.10270	4.0
6.4544	85.6324	-0.24	0.13	0.00	-23.01	7.396	5.23123	7.10538	2.0
6.4744	85.6724	-0.24	0.13	0.00	-23.01	7.396	5.23320	7.10806	0.0
6.4944	85.7124	-0.24	0.13	0.00	-23.01	7.396	5.23517	7.11073	0.0
6.5144	85.7524	-0.24	0.13	0.00	-23.01	7.396	5.23714	7.11341	0.0
6.5344	85.7924	-0.24	0.13	0.00	-23.01	7.396	5.23911	7.11608	0.0
6.5544	85.8324	-0.24	0.13	0.00	-23.01	7.396	5.24107	7.11875	0.0
6.5744	85.8724	-0.24	0.13	0.00	-23.01	7.396	5.24304	7.12142	4.0
6.5944	85.9124	-0.24	0.13	0.00	-23.01	7.396	5.24501	7.12410	2.0
6.6144	85.9524	-0.24	0.13	0.00	-23.01	7.396	5.24697	7.12677	2.0
6.6344	85.9924	-0.24	0.13	0.00	-23.01	7.396	5.24894	7.12944	2.0
6.6544	86.0324	-0.24	0.13	0.00	-23.01	7.396	5.25090	7.13210	0.0
6.6744	86.0724	-0.24	0.13	0.00	-23.01	7.396	5.25287	7.13477	4.0
6.6944	86.1124	-0.24	0.13	0.00	-23.01	7.396	5.25483	7.13744	2.0
6.7144	86.1524	-0.24	0.13	0.00	-23.01	7.396	5.25680	7.14011	0.0
6.7344	86.1924	-0.24	0.13	0.00	-23.01	7.396	5.25876	7.14277	2.0
6.7544	86.2324	-0.24	0.13	0.00	-23.01	7.396	5.26072	7.14543	0.0
6.7744	86.2724	-0.24	0.13	0.00	-23.01	7.396	5.26268	7.14810	6.0
6.7944	86.3124	-0.24	0.13	0.00	-23.01	7.396	5.26464	7.15076	2.0
6.8144	86.3524	-0.24	0.13	0.00	-23.01	7.396	5.26660	7.15342	0.0
6.8344	86.3924	-0.24	0.13	0.00	-23.01	7.396	5.26856	7.15608	4.0
6.8544	86.4324	-0.24	0.13	0.00	-23.01	7.396	5.27052	7.15874	0.0
6.8744	86.4724	-0.24	0.13	0.00	-23.01	7.396	5.27247	7.16140	0.0
6.8944	86.5124	-0.24	0.13	0.00	-23.01	7.396	5.27443	7.16406	2.0
6.9144	86.5524	-0.24	0.13	0.00	-23.01	7.396	5.27639	7.16672	0.0
6.9344	86.5924	-0.24	0.13	0.00	-23.01	7.396	5.27834	7.16937	0.0
6.9544	86.6324	-0.24	0.13	0.00	-23.01	7.396	5.28030	7.17203	2.0
6.9744	86.6724	-0.24	0.13	0.00	-23.01	7.396	5.28225	7.17468	4.0
6.9944	86.7124	-0.24	0.13	0.00	-23.01	7.396	5.28421	7.17734	0.0
7.0144	86.7524	-0.24	0.13	0.00	-23.01	7.396	5.28616	7.17999	0.0
7.0344	86.7924	-0.24	0.13	0.00	-23.01	7.396	5.28811	7.18264	0.0
7.0544	86.8324	-0.24	0.13	0.00	-23.01	7.396	5.29007	7.18529	0.0
7.0744	86.8724	-0.24	0.13	0.00	-23.01	7.396	5.29202	7.18795	4.0
7.0944	86.9124	-0.24	0.13	0.00	-23.01	7.396	5.29397	7.19059	0.0
7.1144	86.9524	-0.24	0.13	0.00	-23.01	7.396	5.29592	7.19324	0.0
7.1344	86.9924	-0.24	0.13	0.00	-23.01	7.396	5.29787	7.19589	0.0
7.1544	87.0324	-0.24	0.13	0.00	-23.01	7.396	5.29982	7.19854	0.0
7.1744	87.0724	-0.24	0.13	0.00	-23.01	7.396	5.30176	7.20118	4.0
7.1944	87.1124	-0.24	0.13	0.00	-23.01	7.396	5.30371	7.20383	2.0
7.2144	87.1524	-0.24	0.13	0.00	-23.01	7.396	5.30566	7.20647	0.0
7.2344	87.1924	-0.24	0.13	0.00	-23.01	7.396	5.30760	7.20912	2.0
7.2544	87.2324	-0.24	0.13	0.00	-23.01	7.396	5.30955	7.21176	6.0
7.2744	87.2724	-0.24	0.13	0.00	-23.01	7.396	5.31149	7.21440	2.0
7.2944	87.3124	-0.24	0.13	0.00	-23.01	7.396	5.31344	7.21704	2.0
7.3144	87.3524	-0.24	0.13	0.00	-23.01	7.396	5.31538	7.21968	2.0
7.3344	87.3924	-0.24	0.13	0.00	-23.01	7.396	5.31732	7.22232	2.0
7.3544	87.4324	-0.24	0.13	0.00	-23.01	7.396	5.31927	7.22496	2.0
7.3744	87.4724	-0.24	0.13	0.00	-23.01	7.396	5.32121	7.22760	4.0
7.3944	87.5124	-0.24	0.13	0.00	-23.01	7.396	5.32315	7.23023	4.0
7.4144	87.5524	-0.24	0.13	0.00	-23.01	7.396	5.32509	7.23287	4.0
7.4344	87.5924	-0.24	0.13	0.00	-23.01	7.396	5.32703	7.23550	0.0
7.4544	87.6324	-0.24	0.13	0.00	-23.01	7.396	5.32897	7.23813	2.0
7.4744	87.6724	-0.24	0.13	0.00	-23.01	7.396	5.33091	7.24077	0.0
7.4944	87.7124	-0.24	0.13	0.00	-23.01	7.396	5.33284	7.24340	2.0
7.5144	87.7524	-0.24	0.13	0.00	-23.01	7.396	5.33478	7.24603	4.0
7.5344	87.7924	-0.24	0.13	0.00	-23.01	7.396	5.33672	7.24866	2.0
7.5544	87.8324	-0.24	0.13	0.00	-23.01	7.396	5.33865	7.25129	2.0
7.5744	87.8724	-0.24	0.13	0.00	-23.01	7.396	5.34059	7.25392	2.0
7.5944	87.9124	-0.24	0.13	0.00	-23.01	7.396	5.34252	7.25655	2.0
7.6144	87.9524	-0.24	0.13	0.00	-23.01	7.396	5.34446	7.25917	2.0
7.6344	87.9924	-0.24	0.13	0.00	-23.01	7.396	5.34639	7.26180	2.0
7.6544	88.0324	-0.24	0.13	0.00	-23.01	7.396	5.34832	7.26442	0.0
7.6744	88.0724	-0.24	0.13	0.00	-23.01	7.396	5.35025	7.26705	2.0
7.6944	88.1124	-0.24	0.13	0.00	-23.01	7.396	5.35219	7.26967	0.0
7.7144	88.1524	-0.24	0.13	0.00	-23.01	7.396	5.35412	7.27229	4.0
7.7344	88.1924	-0.24	0.13	0.00	-23.01	7.396	5.35605	7.27491	0.0
7.7544	88.2324	-0.24	0.13	0.00	-23.01	7.396	5.35797	7.27753	0.0
7.7744	88.2724	-0.24	0.13	0.00	-23.01	7.396	5.35990	7.28015	4.0
7.7944	88.3124	-0.24	0.13	0.00	-23.01	7.396	5.36183	7.28277	6.0
7.8144	88.3524	-0.24	0.13	0.00	-23.01	7.396	5.36376	7.28539	0.0
7.8344	88.3924	-0.24	0.13	0.00	-23.01	7.396	5.36569	7.28801	2.0
7.8544	88.4324	-0.24	0.13	0.00	-23.01	7.396	5.36761	7.29062	0.0
7.8744	88.4724	-0.24	0.13	0.00	-23.01	7.396	5.36954	7.29324	0.0
7.8944	88.5124	-0.24	0.13	0.00	-23.01	7.396	5.37146	7.29585	6.0
7.9144	88.5524	-0.24	0.13	0.00	-23.01	7.396	5.37339	7.29846	2.0
7.9344	88.5924	-0.24	0.13	0.00	-23.01	7.396	5.37531	7.30108	0.0
7.9544	88.6324	-0.24	0.13	0.00	-23.01	7.396	5.37723	7.30369	4.0
7.9744	88.6724	-0.24	0.13	0.00	-23.01	7.396	5.37915	7.30630	0.0
7.9944	88.7124	-0.24	0.13	0.00	-23.01	7.396	5.38107	7.30891	0.0
8.0144	88.7524	-0.24	0.13	0.00	-23.01	7.396	5.38300	7.31152	2.0
8.0344	88.7924	-0.24	0.13	0.00	-23.01	7.396	5.38492	7.31413	6.0
8.0544	88.8324	-0.24	0.13	0.00	-23.01	7.396	5.38683	7.31673	6.0
8.0744	88.8724	-0.24	0.13	0.00	-23.01	7.396	5.38875	7.31934	0.0
8.0944	88.9124	-0.24	0.13	0.00	-23.01	7.396	5.39067	7.32194	2.0
8.1144	88.9524	-0.24	0.13	0.00	-23.01	7.396	5.39259	7.32455	0.0
8.1344	88.9924	-0.24	0.13	0.00	-23.01	7.396	5.39451	7.32715	2.0
8.1544	89.0324	-0.24	0.13	0.00	-23.01	7.396	5.39642	7.32975	0.0

6.1944	85.0724	-0.24	0.13	0.00	-23.01	7.396	5.20111	7.06963	0.0
6.2144	85.1124	-0.24	0.13	0.00	-23.01	7.396	5.20309	7.07232	0.0
6.2344	85.1524	-0.24	0.13	0.00	-23.01	7.396	5.20506	7.07501	2.0
6.2544	85.1924	-0.24	0.13	0.00	-23.01	7.396	5.20704	7.07770	2.0
6.2744	85.2324	-0.24	0.13	0.00	-23.01	7.396	5.20902	7.08039	0.0
6.2944	85.2724	-0.24	0.13	0.00	-23.01	7.396	5.21099	7.08307	0.0
6.3144	85.3124	-0.24	0.13	0.00	-23.01	7.396	5.21297	7.08576	2.0
6.3344	85.3524	-0.24	0.13	0.00	-23.01	7.396	5.21494	7.08844	0.0
6.3544	85.3924	-0.24	0.13	0.00	-23.01	7.396	5.21692	7.09112	2.0
6.3744	85.4324	-0.24	0.13	0.00	-23.01	7.396	5.21889	7.09381	2.0
6.3944	85.4724	-0.24	0.13	0.00	-23.01	7.396	5.22086	7.09649	2.0
6.4144	85.5124	-0.24	0.13	0.00	-23.01	7.396	5.22284	7.09917	2.0
6.4344	85.5524	-0.24	0.13	0.00	-23.01	7.396	5.22481	7.10185	4.0
6.4544	85.5924	-0.24	0.13	0.00	-23.01	7.396	5.22678	7.10453	0.0
6.4744	85.6324	-0.24	0.13	0.00	-23.01	7.396	5.22875	7.10720	0.0
6.4944	85.6724	-0.24	0.13	0.00	-23.01	7.396	5.23072	7.10988	0.0
6.5144	85.7124	-0.24	0.13	0.00	-23.01	7.396	5.23269	7.11256	0.0
6.5344	85.7524	-0.24	0.13	0.00	-23.01	7.396	5.23465	7.11523	2.0
6.5544	85.7924	-0.24	0.13	0.00	-23.01	7.396	5.23662	7.11791	0.0
6.5744	85.8324	-0.24	0.13	0.00	-23.01	7.396	5.23859	7.12058	0.0
6.5944	85.8724	-0.24	0.13	0.00	-23.01	7.396	5.24056	7.12325	0.0
6.6144	85.9124	-0.24	0.13	0.00	-23.01	7.396	5.24252	7.12593	6.0
6.6344	85.9524	-0.24	0.13	0.00	-23.01	7.396	5.24449	7.12860	4.0
6.6544	85.9924	-0.24	0.13	0.00	-23.01	7.396	5.24645	7.13127	0.0
6.6744	86.0324	-0.24	0.13	0.00	-23.01	7.396	5.24841	7.13394	2.0
6.6944	86.0724	-0.24	0.13	0.00	-23.01	7.396	5.25038	7.13661	0.0
6.7144	86.1124	-0.24	0.13	0.00	-23.01	7.396	5.25234	7.13927	2.0
6.7344	86.1524	-0.24	0.13	0.00	-23.01	7.396	5.25430	7.14194	4.0
6.7544	86.1924	-0.24	0.13	0.00	-23.01	7.396	5.25626	7.14461	4.0
6.7744	86.2324	-0.24	0.13	0.00	-23.01	7.396	5.25822	7.14727	0.0
6.7944	86.2724	-0.24	0.13	0.00	-23.01	7.396	5.26018	7.14993	2.0
6.8144	86.3124	-0.24	0.13	0.00	-23.01	7.396	5.26214	7.15260	4.0
6.8344	86.3524	-0.24	0.13	0.00	-23.01	7.396	5.26410	7.15526	0.0
6.8544	86.3924	-0.24	0.13	0.00	-23.01	7.396	5.26606	7.15792	0.0
6.8744	86.4324	-0.24	0.13	0.00	-23.01	7.396	5.26802	7.16058	2.0
6.8944	86.4724	-0.24	0.13	0.00	-23.01	7.396	5.26997	7.16324	0.0
6.9144	86.5124	-0.24	0.13	0.00	-23.01	7.396	5.27193	7.16590	0.0
6.9344	86.5524	-0.24	0.13	0.00	-23.01	7.396	5.27389	7.16856	2.0
6.9544	86.5924	-0.24	0.13	0.00	-23.01	7.396	5.27584	7.17122	2.0
6.9744	86.6324	-0.24	0.13	0.00	-23.01	7.396	5.27780	7.17387	2.0
6.9944	86.6724	-0.24	0.13	0.00	-23.01	7.396	5.27975	7.17653	2.0
7.0144	86.7124	-0.24	0.13	0.00	-23.01	7.396	5.28170	7.17918	0.0
7.0344	86.7524	-0.24	0.13	0.00	-23.01	7.396	5.28365	7.18184	0.0
7.0544	86.7924	-0.24	0.13	0.00	-23.01	7.396	5.28561	7.18449	2.0
7.0744	86.8324	-0.24	0.13	0.00	-23.01	7.396	5.28756	7.18714	2.0
7.0944	86.8724	-0.24	0.13	0.00	-23.01	7.396	5.28951	7.18979	0.0
7.1144	86.9124	-0.24	0.13	0.00	-23.01	7.396	5.29146	7.19244	2.0
7.1344	86.9524	-0.24	0.13	0.00	-23.01	7.396	5.29341	7.19509	0.0
7.1544	86.9924	-0.24	0.13	0.00	-23.01	7.396	5.29535	7.19774	0.0
7.1744	87.0324	-0.24	0.13	0.00	-23.01	7.396	5.29730	7.20039	0.0
7.1944	87.0724	-0.24	0.13	0.00	-23.01	7.396	5.29925	7.20303	2.0
7.2144	87.1124	-0.24	0.13	0.00	-23.01	7.396	5.30120	7.20568	0.0
7.2344	87.1524	-0.24	0.13	0.00	-23.01	7.396	5.30314	7.20832	0.0
7.2544	87.1924	-0.24	0.13	0.00	-23.01	7.396	5.30509	7.21097	0.0
7.2744	87.2324	-0.24	0.13	0.00	-23.01	7.396	5.30703	7.21361	2.0
7.2944	87.2724	-0.24	0.13	0.00	-23.01	7.396	5.30898	7.21625	4.0
7.3144	87.3124	-0.24	0.13	0.00	-23.01	7.396	5.31092	7.21890	2.0
7.3344	87.3524	-0.24	0.13	0.00	-23.01	7.396	5.31286	7.22154	0.0
7.3544	87.3924	-0.24	0.13	0.00	-23.01	7.396	5.31480	7.22418	2.0
7.3744	87.4324	-0.24	0.13	0.00	-23.01	7.396	5.31674	7.22681	0.0
7.3944	87.4724	-0.24	0.13	0.00	-23.01	7.396	5.31869	7.22945	2.0
7.4144	87.5124	-0.24	0.13	0.00	-23.01	7.396	5.32063	7.23209	0.0
7.4344	87.5524	-0.24	0.13	0.00	-23.01	7.396	5.32256	7.23473	6.0
7.4544	87.5924	-0.24	0.13	0.00	-23.01	7.396	5.32450	7.23736	2.0
7.4744	87.6324	-0.24	0.13	0.00	-23.01	7.396	5.32644	7.23999	0.0
[...]
9.4344	87.6724	-0.24	0.13	0.00	-23.01	7.396	5.08014	7.41886	4.0
9.4544	87.7124	-0.24	0.13	0.00	-23.01	7.396	5.08199	7.42155	0.0
9.4744	87.7524	-0.24	0.13	0.00	-23.01	7.396	5.08383	7.42425	2.0
9.4944	87.7924	-0.24	0.13	0.00	-23.01	7.396	5.08568	7.42695	2.0
9.5144	87.8324	-0.24	0.13	0.00	-23.01	7.396	5.08752	7.42964	0.0
9.5344	87.8724	-0.24	0.13	0.00	-23.01	7.396	5.08937	7.43233	6.0
9.5544	87.9124	-0.24	0.13	0.00	-23.01	7.396	5.09121	7.43502	2.0
9.5744	87.9524	-0.24	0.13	0.00	-23.01	7.396	5.09305	7.43772	4.0
9.5944	87.9924	-0.24	0.13	0.00	-23.01	7.396	5.09490	7.44041	0.0
9.6144	88.0324	-0.24	0.13	0.00	-23.01	7.396	5.09674	7.44309	0.0
9.6344	88.0724	-0.24	0.13	0.00	-23.01	7.396	5.09858	7.44578	0.0
9.6544	88.1124	-0.24	0.13	0.00	-23.01	7.396	5.10042	7.44847	4.0
9.6744	88.1524	-0.24	0.13	0.00	-23.01	7.396	5.10226	7.45116	0.0
9.6944	88.1924	-0.24	0.13	0.00	-23.01	7.396	5.10410	7.45384	4.0
9.7144	88.2324	-0.24	0.13	0.00	-23.01	7.396	5.10594	7.45653	2.0
9.7344	88.2724	-0.24	0.13	0.00	-23.01	7.396	5.10777	7.45921	6.0
9.7544	88.3124	-0.24	0.13	0.00	-23.01	7.396	5.10961	7.46190	2.0
9.7744	88.3524	-0.24	0.13	0.00	-23.01	7.396	5.11145	7.46458	0.0
9.7944	88.3924	-0.24	0.13	0.00	-23.01	7.396	5.11328	7.46726	2.0
9.8144	88.4324	-0.24	0.13	0.00	-23.01	7.396	5.11512	7.46994	2.0
9.8344	88.4724	-0.24	0.13	0.00	-23.01	7.396	5.11695	7.47262	0.0
9.8544	88.5124	-0.24	0.13	0.00	-23.01	7.396	5.11879	7.47530	0.0
9.8744	88.5524	-0.24	0.13	0.00	-23.01	7.396	5.12062	7.47797	0.0
9.8944	88.5924	-0.24	0.13	0.00	-23.01	7.396	5.12245	7.48065	0.0
9.9144	88.6324	-0.24	0.13	0.00	-23.01	7.396	5.12429	7.48333	0.0
9.9344	88.6724	-0.24	0.13	0.00	-23.01	7.396	5.12612	7.48600	6.0
9.9544	88.7124	-0.24	0.13	0.00	-23.01	7.396	5.12795	7.48868	2.0
9.9744	88.7524	-0.24	0.13	0.00	-23.01	7.396	5.12978	7.49135	0.0
9.9944	88.7924	-0.24	0.13	0.00	-23.01	7.396	5.13161	7.49402	0.0
10.0144	88.8324	-0.24	0.13	0.00	-23.01	7.396	5.13344	7.49669	0.0
10.0344	88.8724	-0.24	0.13	0.00	-23.01	7.396	5.13527	7.49936	0.0
10.0544	88.9124	-0.24	0.13	0.00	-23.01	7.396	5.13709	7.50203	2.0
10.0744	88.9524	-0.24	0.13	0.00	-23.01	7.396	5.13892	7.50470	0.0
10.0944	88.9924	-0.24	0.13	0.00	-23.01	7.396	5.14075	7.50737	0.0
10.1144	89.0324	-0.24	0.13	0.00	-23.01	7.396	5.14257	7.51003	0.0

8.1544	85.0724	-0.24	0.13	0.00	-23.01	7.396	4.95627	7.24338	2.0
8.1744	85.1124	-0.24	0.13	0.00	-23.01	7.396	4.95816	7.24614	0.0
8.1944	85.1524	-0.24	0.13	0.00	-23.01	7.396	4.96004	7.24889	0.0
8.2144	85.1924	-0.24	0.13	0.00	-23.01	7.396	4.96192	7.25165	2.0
8.2344	85.2324	-0.24	0.13	0.00	-23.01	7.396	4.96381	7.25440	2.0
8.2544	85.2724	-0.24	0.13	0.00	-23.01	7.396	4.96569	7.25715	4.0
8.2744	85.3124	-0.24	0.13	0.00	-23.01	7.396	4.96757	7.25990	0.0
8.2944	85.3524	-0.24	0.13	0.00	-23.01	7.396	4.96945	7.26265	0.0
8.3144	85.3924	-0.24	0.13	0.00	-23.01	7.396	4.97134	7.26540	0.0
8.3344	85.4324	-0.24	0.13	0.00	-23.01	7.396	4.97322	7.26815	0.0
8.3544	85.4724	-0.24	0.13	0.00	-23.01	7.396	4.97510	7.27090	2.0
8.3744	85.5124	-0.24	0.13	0.00	-23.01	7.396	4.97698	7.27364	0.0
8.3944	85.5524	-0.24	0.13	0.00	-23.01	7.396	4.97885	7.27639	0.0
8.4144	85.5924	-0.24	0.13	0.00	-23.01	7.396	4.98073	7.27913	0.0
8.4344	85.6324	-0.24	0.13	0.00	-23.01	7.396	4.98261	7.28188	0.0
8.4544	85.6724	-0.24	0.13	0.00	-23.01	7.396	4.98449	7.28462	0.0
8.4744	85.7124	-0.24	0.13	0.00	-23.01	7.396	4.98636	7.28736	0.0
8.4944	85.7524	-0.24	0.13	0.00	-23.01	7.396	4.98824	7.29010	0.0
8.5144	85.7924	-0.24	0.13	0.00	-23.01	7.396	4.99011	7.29285	0.0
8.5344	85.8324	-0.24	0.13	0.00	-23.01	7.396	4.99199	7.29558	4.0
8.5544	85.8724	-0.24	0.13	0.00	-23.01	7.396	4.99386	7.29832	0.0
8.5744	85.9124	-0.24	0.13	0.00	-23.01	7.396	4.99573	7.30106	2.0
8.5944	85.9524	-0.24	0.13	0.00	-23.01	7.396	4.99761	7.30380	2.0
8.6144	85.9924	-0.24	0.13	0.00	-23.01	7.396	4.99948	7.30653	2.0
8.6344	86.0324	-0.24	0.13	0.00	-23.01	7.396	5.00135	7.30927	0.0
8.6544	86.0724	-0.24	0.13	0.00	-23.01	7.396	5.00322	7.31200	0.0
8.6744	86.1124	-0.24	0.13	0.00	-23.01	7.396	5.00509	7.31474	0.0
8.6944	86.1524	-0.24	0.13	0.00	-23.01	7.396	5.00696	7.31747	0.0
8.7144	86.1924	-0.24	0.13	0.00	-23.01	7.396	5.00883	7.32020	0.0
8.7344	86.2324	-0.24	0.13	0.00	-23.01	7.396	5.01070	7.32293	2.0
8.7544	86.2724	-0.24	0.13	0.00	-23.01	7.396	5.01257	7.32566	0.0
8.7744	86.3124	-0.24	0.13	0.00	-23.01	7.396	5.01443	7.32839	4.0
8.7944	86.3524	-0.24	0.13	0.00	-23.01	7.396	5.01630	7.33112	0.0
8.8144	86.3924	-0.24	0.13	0.00	-23.01	7.396	5.01817	7.33384	0.0
8.8344	86.4324	-0.24	0.13	0.00	-23.01	7.396	5.02003	7.33657	2.0
8.8544	86.4724	-0.24	0.13	0.00	-23.01	7.396	5.02190	7.33929	0.0
8.8744	86.5124	-0.24	0.13	0.00	-23.01	7.396	5.02376	7.34202	2.0
8.8944	86.5524	-0.24	0.13	0.00	-23.01	7.396	5.02562	7.34474	2.0
8.9144	86.5924	-0.24	0.13	0.00	-23.01	7.396	5.02749	7.34746	2.0
8.9344	86.6324	-0.24	0.13	0.00	-23.01	7.396	5.02935	7.35019	0.0
8.9544	86.6724	-0.24	0.13	0.00	-23.01	7.396	5.03121	7.35291	4.0
8.9744	86.7124	-0.24	0.13	0.00	-23.01	7.396	5.03307	7.35563	2.0
8.9944	86.7524	-0.24	0.13	0.00	-23.01	7.396	5.03493	7.35834	0.0
9.0144	86.7924	-0.24	0.13	0.00	-23.01	7.396	5.03679	7.36106	0.0
9.0344	86.8324	-0.24	0.13	0.00	-23.01	7.396	5.03865	7.36378	0.0
9.0544	86.8724	-0.24	0.13	0.00	-23.01	7.396	5.04051	7.36650	0.0
9.0744	86.9124	-0.24	0.13	0.00	-23.01	7.396	5.04237	7.36921	2.0
9.0944	86.9524	-0.24	0.13	0.00	-23.01	7.396	5.04422	7.37193	2.0
9.1144	86.9924	-0.24	0.13	0.00	-23.01	7.396	5.04608	7.37464	8.0
9.1344	87.0324	-0.24	0.13	0.00	-23.01	7.396	5.04794	7.37735	0.0
9.1544	87.0724	-0.24	0.13	0.00	-23.01	7.396	5.04979	7.38006	4.0
9.1744	87.1124	-0.24	0.13	0.00	-23.01	7.396	5.05165	7.38277	0.0
9.1944	87.1524	-0.24	0.13	0.00	-23.01	7.396	5.05350	7.38548	0.0
9.2144	87.1924	-0.24	0.13	0.00	-23.01	7.396	5.05536	7.38819	0.0
9.2344	87.2324	-0.24	0.13	0.00	-23.01	7.396	5.05721	7.39090	2.0
9.2544	87.2724	-0.24	0.13	0.00	-23.01	7.396	5.05906	7.39361	8.0
9.2744	87.3124	-0.24	0.13	0.00	-23.01	7.396	5.06091	7.39631	2.0
9.2944	87.3524	-0.24	0.13	0.00	-23.01	7.396	5.06276	7.39902	2.0
9.3144	87.3924	-0.24	0.13	0.00	-23.01	7.396	5.06461	7.40172	0.0
9.3344	87.4324	-0.24	0.13	0.00	-23.01	7.396	5.06646	7.40443	2.0
9.3544	87.4724	-0.24	0.13	0.00	-23.01	7.396	5.06831	7.40713	2.0
9.3744	87.5124	-0.24	0.13	0.00	-23.01	7.396	5.07016	7.40983	0.0
9.3944	87.5524	-0.24	0.13	0.00	-23.01	7.396	5.07201	7.41253	0.0
9.4144	87.5924	-0.24	0.13	0.00	-23.01	7.396	5.07386	7.41523	0.0
9.4344	87.6324	-0.24	0.13	0.00	-23.01	7.396	5.07570	7.41793	2.0
9.4544	87.6724	-0.24	0.13	0.00	-23.01	7.396	5.07755	7.42063	0.0
9.4744	87.7124	-0.24	0.13	0.00	-23.01	7.396	5.07940	7.42333	4.0
9.4944	87.7524	-0.24	0.13	0.00	-23.01	7.396	5.08124	7.42602	2.0
9.5144	87.7924	-0.24	0.13	0.00	-23.01	7.396	5.08309	7.42872	2.0
9.5344	87.8324	-0.24	0.13	0.00	-23.01	7.396	5.08493	7.43141	0.0
9.5544	87.8724	-0.24	0.13	0.00	-23.01	7.396	5.08677	7.43411	0.0
9.5744	87.9124	-0.24	0.13	0.00	-23.01	7.396	5.08861	7.43680	0.0
9.5944	87.9524	-0.24	0.13	0.00	-23.01	7.396	5.09046	7.43949	0.0
9.6144	87.9924	-0.24	0.13	0.00	-23.01	7.396	5.09230	7.44218	0.0
9.6344	88.0324	-0.24	0.13	0.00	-23.01	7.396	5.09414	7.44487	4.0
9.6544	88.0724	-0.24	0.13	0.00	-23.01	7.396	5.09598	7.44756	2.0
9.6744	88.1124	-0.24	0.13	0.00	-23.01	7.396	5.09782	7.45025	2.0
9.6944	88.1524	-0.24	0.13	0.00	-23.01	7.396	5.09966	7.45294	4.0
9.7144	88.1924	-0.24	0.13	0.00	-23.01	7.396	5.10149	7.45562	2.0
9.7344	88.2324	-0.24	0.13	0.00	-23.01	7.396	5.10333	7.45831	0.0
9.7544	88.2724	-0.24	0.13	0.00	-23.01	7.396	5.10517	7.46099	0.0
9.7744	88.3124	-0.24	0.13	0.00	-23.01	7.396	5.10701	7.46368	0.0
9.7944	88.3524	-0.24	0.13	0.00	-23.01	7.396	5.10884	7.46636	2.0
9.8144	88.3924	-0.24	0.13	0.00	-23.01	7.396	5.11068	7.46904	2.0
9.8344	88.4324	-0.24	0.13	0.00	-23.01	7.396	5.11251	7.47172	0.0
9.8544	88.4724	-0.24	0.13	0.00	-23.01	7.396	5.11434	7.47440	2.0
9.8744	88.5124	-0.24	0.13	0.00	-23.01	7.396	5.11618	7.47708	4.0
9.8944	88.5524	-0.24	0.13	0.00	-23.01	7.396	5.11801	7.47976	2.0
9.9144	88.5924	-0.24	0.13	0.00	-23.01	7.396	5.11984	7.48244	0.0
9.9344	88.6324	-0.24	0.13	0.00	-23.01	7.396	5.12167	7.48511	0.0
9.9544	88.6724	-0.24	0.13	0.00	-23.01	7.396	5.12350	7.48779	2.0
9.9744	88.7124	-0.24	0.13	0.00	-23.01	7.396	5.12533	7.49046	2.0
9.9944	88.7524	-0.24	0.13	0.00	-23.01	7.396	5.12716	7.49314	0.0
10.0144	88.7924	-0.24	0.13	0.00	-23.01	7.396	5.12899	7.49581	2.0
10.0344	88.8324	-0.24	0.13	0.00	-23.01	7.396	5.13082	7.49848	0.0
10.0544	88.8724	-0.24	0.13	0.00	-23.01	7.396	5.13265	7.50115	2.0
10.0744	88.9124	-0.24	0.13	0.00	-23.01	7.396	5.13448	7.50382	0.0
10.0944	88.9524	-0.24	0.13	0.00	-23.01	7.396	5.13630	7.50649	0.0
10.1144	88.9924	-0.24	0.13	0.00	-23.01	7.396	5.13813	7.50916	0.0
10.1344	89.0324	-0.24	0.13	0.00	-23.01	7.396	5.13995	7.51183	0.0