File: Data/Omega2Theta/2.0deg-2.0deg-rsm-3h10mins_11352-annealed_224_w_000-100.dat
# filename: 2.0deg-2.0deg-rsm-3h10mins_11352-annealed_224.dat
# reflection: (004)
# type: Projection of 100 omega2theta scans
# x-axis: omega2theta
#
# Omega	2Theta	Phi  	Chi   	X    	Y    	Z    	q_para	q_perp	Intensity
# [deg]	[deg] 	[deg]	[deg] 	[mm] 	[mm] 	[mm] 	[nm-1]	[nm-1]	[counts/s]
7.5575	85.0512	-1.19	0.12	0.00	17.51	7.290	5.02886	7.19047	1.3
7.5775	85.0912	-1.19	0.12	0.00	17.51	7.290	5.03077	7.19320	1.1
7.5975	85.1312	-1.19	0.12	0.00	17.51	7.290	5.03268	7.19594	1.5
7.6175	85.1712	-1.19	0.12	0.00	17.51	7.290	5.03459	7.19867	1.3
7.6375	85.2112	-1.19	0.12	0.00	17.51	7.290	5.03651	7.20141	1.3
7.6575	85.2512	-1.19	0.12	0.00	17.51	7.290	5.03842	7.20414	1.4
7.6775	85.2912	-1.19	0.12	0.00	17.51	7.290	5.04033	7.20687	1.1
7.6975	85.3312	-1.19	0.12	0.00	17.51	7.290	5.04224	7.20960	1.3
7.7175	85.3712	-1.19	0.12	0.00	17.51	7.290	5.04415	7.21233	1.2
7.7375	85.4112	-1.19	0.12	0.00	17.51	7.290	5.04606	7.21506	1.8
7.7575	85.4512	-1.19	0.12	0.00	17.51	7.290	5.04796	7.21779	1.5
7.7775	85.4912	-1.19	0.12	0.00	17.51	7.290	5.04987	7.22052	1.3
7.7975	85.5312	-1.19	0.12	0.00	17.51	7.290	5.05178	7.22324	1.4
7.8175	85.5712	-1.19	0.12	0.00	17.51	7.290	5.05368	7.22597	1.5
7.8375	85.6112	-1.19	0.12	0.00	17.51	7.290	5.05559	7.22869	1.8
7.8575	85.6512	-1.19	0.12	0.00	17.51	7.290	5.05749	7.23142	1.5
7.8775	85.6912	-1.19	0.12	0.00	17.51	7.290	5.05940	7.23414	1.7
7.8975	85.7312	-1.19	0.12	0.00	17.51	7.290	5.06130	7.23686	1.6
7.9175	85.7712	-1.19	0.12	0.00	17.51	7.290	5.06321	7.23958	1.8
7.9375	85.8112	-1.19	0.12	0.00	17.51	7.290	5.06511	7.24231	1.9
7.9575	85.8512	-1.19	0.12	0.00	17.51	7.290	5.06701	7.24502	2.1
7.9775	85.8912	-1.19	0.12	0.00	17.51	7.290	5.06891	7.24774	2.1
7.9975	85.9312	-1.19	0.12	0.00	17.51	7.290	5.07081	7.25046	2.3
8.0175	85.9712	-1.19	0.12	0.00	17.51	7.290	5.07271	7.25318	2.5
8.0375	86.0112	-1.19	0.12	0.00	17.51	7.290	5.07461	7.25589	2.3
8.0575	86.0512	-1.19	0.12	0.00	17.51	7.290	5.07651	7.25861	3.1
8.0775	86.0912	-1.19	0.12	0.00	17.51	7.290	5.07841	7.26132	2.9
8.0975	86.1312	-1.19	0.12	0.00	17.51	7.290	5.08031	7.26404	3.4
8.1175	86.1712	-1.19	0.12	0.00	17.51	7.290	5.08220	7.26675	4.2
8.1375	86.2112	-1.19	0.12	0.00	17.51	7.290	5.08410	7.26946	5.6
8.1575	86.2512	-1.19	0.12	0.00	17.51	7.290	5.08600	7.27217	12.0
8.1775	86.2912	-1.19	0.12	0.00	17.51	7.290	5.08789	7.27488	58.1
8.1975	86.3312	-1.19	0.12	0.00	17.51	7.290	5.08979	7.27759	998.2
8.2175	86.3712	-1.19	0.12	0.00	17.51	7.290	5.09168	7.28030	2872.8
8.2375	86.4112	-1.19	0.12	0.00	17.51	7.290	5.09357	7.28300	460.5
8.2575	86.4512	-1.19	0.12	0.00	17.51	7.290	5.09547	7.28571	214.1
8.2775	86.4912	-1.19	0.12	0.00	17.51	7.290	5.09736	7.28842	199.7
8.2975	86.5312	-1.19	0.12	0.00	17.51	7.290	5.09925	7.29112	190.8
8.3175	86.5712	-1.19	0.12	0.00	17.51	7.290	5.10114	7.29382	186.0
8.3375	86.6112	-1.19	0.12	0.00	17.51	7.290	5.10303	7.29653	178.9
8.3575	86.6512	-1.19	0.12	0.00	17.51	7.290	5.10492	7.29923	185.6
8.3775	86.6912	-1.19	0.12	0.00	17.51	7.290	5.10681	7.30193	182.0
8.3975	86.7312	-1.19	0.12	0.00	17.51	7.290	5.10870	7.30463	180.3
8.4175	86.7712	-1.19	0.12	0.00	17.51	7.290	5.11059	7.30733	168.2
8.4375	86.8112	-1.19	0.12	0.00	17.51	7.290	5.11247	7.31003	161.8
8.4575	86.8512	-1.19	0.12	0.00	17.51	7.290	5.11436	7.31272	157.2
8.4775	86.8912	-1.19	0.12	0.00	17.51	7.290	5.11625	7.31542	149.1
8.4975	86.9312	-1.19	0.12	0.00	17.51	7.290	5.11813	7.31812	140.7
8.5175	86.9712	-1.19	0.12	0.00	17.51	7.290	5.12001	7.32081	134.5
8.5375	87.0112	-1.19	0.12	0.00	17.51	7.290	5.12190	7.32351	133.4
8.5575	87.0512	-1.19	0.12	0.00	17.51	7.290	5.12378	7.32620	131.3
8.5775	87.0912	-1.19	0.12	0.00	17.51	7.290	5.12567	7.32889	128.7
8.5975	87.1312	-1.19	0.12	0.00	17.51	7.290	5.12755	7.33158	127.7
8.6175	87.1712	-1.19	0.12	0.00	17.51	7.290	5.12943	7.33427	123.4
8.6375	87.2112	-1.19	0.12	0.00	17.51	7.290	5.13131	7.33696	115.4
8.6575	87.2512	-1.19	0.12	0.00	17.51	7.290	5.13319	7.33965	116.2
8.6775	87.2912	-1.19	0.12	0.00	17.51	7.290	5.13507	7.34234	108.9
8.6975	87.3312	-1.19	0.12	0.00	17.51	7.290	5.13695	7.34502	108.1
8.7175	87.3712	-1.19	0.12	0.00	17.51	7.290	5.13883	7.34771	105.0
8.7375	87.4112	-1.19	0.12	0.00	17.51	7.290	5.14070	7.35039	103.0
8.7575	87.4512	-1.19	0.12	0.00	17.51	7.290	5.14258	7.35308	100.9
8.7775	87.4912	-1.19	0.12	0.00	17.51	7.290	5.14446	7.35576	97.3
8.7975	87.5312	-1.19	0.12	0.00	17.51	7.290	5.14633	7.35844	92.6
8.8175	87.5712	-1.19	0.12	0.00	17.51	7.290	5.14821	7.36112	92.1
8.8375	87.6112	-1.19	0.12	0.00	17.51	7.290	5.15008	7.36380	92.7
8.8575	87.6512	-1.19	0.12	0.00	17.51	7.290	5.15196	7.36648	88.4
8.8775	87.6912	-1.19	0.12	0.00	17.51	7.290	5.15383	7.36916	87.5
8.8975	87.7312	-1.19	0.12	0.00	17.51	7.290	5.15570	7.37184	82.4
8.9175	87.7712	-1.19	0.12	0.00	17.51	7.290	5.15758	7.37452	81.6
8.9375	87.8112	-1.19	0.12	0.00	17.51	7.290	5.15945	7.37719	81.8
8.9575	87.8512	-1.19	0.12	0.00	17.51	7.290	5.16132	7.37987	73.8
8.9775	87.8912	-1.19	0.12	0.00	17.51	7.290	5.16319	7.38254	72.7
8.9975	87.9312	-1.19	0.12	0.00	17.51	7.290	5.16506	7.38521	68.4
9.0175	87.9712	-1.19	0.12	0.00	17.51	7.290	5.16693	7.38789	82.6
9.0375	88.0112	-1.19	0.12	0.00	17.51	7.290	5.16880	7.39056	715.2
9.0575	88.0512	-1.19	0.12	0.00	17.51	7.290	5.17066	7.39323	1034.9
9.0775	88.0912	-1.19	0.12	0.00	17.51	7.290	5.17253	7.39590	88.7
9.0975	88.1312	-1.19	0.12	0.00	17.51	7.290	5.17440	7.39857	10.7
9.1175	88.1712	-1.19	0.12	0.00	17.51	7.290	5.17626	7.40124	6.3
9.1375	88.2112	-1.19	0.12	0.00	17.51	7.290	5.17813	7.40390	5.1
9.1575	88.2512	-1.19	0.12	0.00	17.51	7.290	5.17999	7.40657	4.8
9.1775	88.2912	-1.19	0.12	0.00	17.51	7.290	5.18186	7.40923	4.7
9.1975	88.3312	-1.19	0.12	0.00	17.51	7.290	5.18372	7.41190	4.1
9.2175	88.3712	-1.19	0.12	0.00	17.51	7.290	5.18558	7.41456	3.7
9.2375	88.4112	-1.19	0.12	0.00	17.51	7.290	5.18744	7.41722	3.5
9.2575	88.4512	-1.19	0.12	0.00	17.51	7.290	5.18930	7.41988	2.7
9.2775	88.4912	-1.19	0.12	0.00	17.51	7.290	5.19117	7.42255	2.0
9.2975	88.5312	-1.19	0.12	0.00	17.51	7.290	5.19303	7.42521	2.3
9.3175	88.5712	-1.19	0.12	0.00	17.51	7.290	5.19488	7.42786	2.2
9.3375	88.6112	-1.19	0.12	0.00	17.51	7.290	5.19674	7.43052	1.5
9.3575	88.6512	-1.19	0.12	0.00	17.51	7.290	5.19860	7.43318	1.7
9.3775	88.6912	-1.19	0.12	0.00	17.51	7.290	5.20046	7.43583	1.2
9.3975	88.7312	-1.19	0.12	0.00	17.51	7.290	5.20232	7.43849	2.0
9.4175	88.7712	-1.19	0.12	0.00	17.51	7.290	5.20417	7.44114	1.3
9.4375	88.8112	-1.19	0.12	0.00	17.51	7.290	5.20603	7.44380	1.7
9.4575	88.8512	-1.19	0.12	0.00	17.51	7.290	5.20788	7.44645	1.5
9.4775	88.8912	-1.19	0.12	0.00	17.51	7.290	5.20974	7.44910	1.5
9.4975	88.9312	-1.19	0.12	0.00	17.51	7.290	5.21159	7.45175	1.7
9.5175	88.9712	-1.19	0.12	0.00	17.51	7.290	5.21345	7.45440	1.0
9.5375	89.0112	-1.19	0.12	0.00	17.51	7.290	5.21530	7.45705	1.6