File: Data/Omega2Theta/2.0deg-2.0deg-rsm-3h10mins_11371-as-grown_224_w_000-100.dat
# filename: 2.0deg-2.0deg-rsm-3h10mins_11371-as-grown_224.dat
# reflection: (004)
# type: Projection of 100 omega2theta scans
# x-axis: omega2theta
#
# Omega	2Theta	Phi  	Chi   	X    	Y    	Z    	q_para	q_perp	Intensity
# [deg]	[deg] 	[deg]	[deg] 	[mm] 	[mm] 	[mm] 	[nm-1]	[nm-1]	[counts/s]
7.3979	85.0636	0.79	0.07	5.00	5.00	7.412	5.05024	7.17673	1.2
7.4179	85.1036	0.79	0.07	5.00	5.00	7.412	5.05216	7.17946	1.6
7.4379	85.1436	0.79	0.07	5.00	5.00	7.412	5.05408	7.18219	1.6
7.4579	85.1836	0.79	0.07	5.00	5.00	7.412	5.05600	7.18492	1.9
7.4779	85.2236	0.79	0.07	5.00	5.00	7.412	5.05792	7.18765	1.9
7.4979	85.2636	0.79	0.07	5.00	5.00	7.412	5.05984	7.19037	2.0
7.5179	85.3036	0.79	0.07	5.00	5.00	7.412	5.06176	7.19310	1.8
7.5379	85.3436	0.79	0.07	5.00	5.00	7.412	5.06367	7.19582	1.8
7.5579	85.3836	0.79	0.07	5.00	5.00	7.412	5.06559	7.19855	1.6
7.5779	85.4236	0.79	0.07	5.00	5.00	7.412	5.06751	7.20127	2.0
7.5979	85.4636	0.79	0.07	5.00	5.00	7.412	5.06942	7.20400	1.9
7.6179	85.5036	0.79	0.07	5.00	5.00	7.412	5.07134	7.20672	1.8
7.6379	85.5436	0.79	0.07	5.00	5.00	7.412	5.07325	7.20944	1.8
7.6579	85.5836	0.79	0.07	5.00	5.00	7.412	5.07517	7.21216	1.9
7.6779	85.6236	0.79	0.07	5.00	5.00	7.412	5.07708	7.21488	2.2
7.6979	85.6636	0.79	0.07	5.00	5.00	7.412	5.07899	7.21759	2.4
7.7179	85.7036	0.79	0.07	5.00	5.00	7.412	5.08091	7.22031	2.3
7.7379	85.7436	0.79	0.07	5.00	5.00	7.412	5.08282	7.22303	2.6
7.7579	85.7836	0.79	0.07	5.00	5.00	7.412	5.08473	7.22574	2.6
7.7779	85.8236	0.79	0.07	5.00	5.00	7.412	5.08664	7.22846	2.4
7.7979	85.8636	0.79	0.07	5.00	5.00	7.412	5.08855	7.23117	2.7
7.8179	85.9036	0.79	0.07	5.00	5.00	7.412	5.09046	7.23389	2.9
7.8379	85.9436	0.79	0.07	5.00	5.00	7.412	5.09237	7.23660	2.8
7.8579	85.9836	0.79	0.07	5.00	5.00	7.412	5.09427	7.23931	3.3
7.8779	86.0236	0.79	0.07	5.00	5.00	7.412	5.09618	7.24202	3.4
7.8979	86.0636	0.79	0.07	5.00	5.00	7.412	5.09809	7.24473	4.0
7.9179	86.1036	0.79	0.07	5.00	5.00	7.412	5.09999	7.24744	4.5
7.9379	86.1436	0.79	0.07	5.00	5.00	7.412	5.10190	7.25014	6.0
7.9579	86.1836	0.79	0.07	5.00	5.00	7.412	5.10380	7.25285	7.5
7.9779	86.2236	0.79	0.07	5.00	5.00	7.412	5.10571	7.25556	13.2
7.9979	86.2636	0.79	0.07	5.00	5.00	7.412	5.10761	7.25826	49.6
8.0179	86.3036	0.79	0.07	5.00	5.00	7.412	5.10951	7.26097	450.5
8.0379	86.3436	0.79	0.07	5.00	5.00	7.412	5.11141	7.26367	3174.5
8.0579	86.3836	0.79	0.07	5.00	5.00	7.412	5.11332	7.26637	1721.2
8.0779	86.4236	0.79	0.07	5.00	5.00	7.412	5.11522	7.26907	381.6
8.0979	86.4636	0.79	0.07	5.00	5.00	7.412	5.11712	7.27177	237.6
8.1179	86.5036	0.79	0.07	5.00	5.00	7.412	5.11902	7.27447	228.3
8.1379	86.5436	0.79	0.07	5.00	5.00	7.412	5.12092	7.27717	221.5
8.1579	86.5836	0.79	0.07	5.00	5.00	7.412	5.12281	7.27987	223.1
8.1779	86.6236	0.79	0.07	5.00	5.00	7.412	5.12471	7.28257	223.5
8.1979	86.6636	0.79	0.07	5.00	5.00	7.412	5.12661	7.28526	227.8
8.2179	86.7036	0.79	0.07	5.00	5.00	7.412	5.12851	7.28796	225.5
8.2379	86.7436	0.79	0.07	5.00	5.00	7.412	5.13040	7.29065	216.8
8.2579	86.7836	0.79	0.07	5.00	5.00	7.412	5.13230	7.29334	211.7
8.2779	86.8236	0.79	0.07	5.00	5.00	7.412	5.13419	7.29604	203.9
8.2979	86.8636	0.79	0.07	5.00	5.00	7.412	5.13609	7.29873	190.7
8.3179	86.9036	0.79	0.07	5.00	5.00	7.412	5.13798	7.30142	181.5
8.3379	86.9436	0.79	0.07	5.00	5.00	7.412	5.13987	7.30411	176.1
8.3579	86.9836	0.79	0.07	5.00	5.00	7.412	5.14177	7.30680	168.6
8.3779	87.0236	0.79	0.07	5.00	5.00	7.412	5.14366	7.30949	166.7
8.3979	87.0636	0.79	0.07	5.00	5.00	7.412	5.14555	7.31217	164.4
8.4179	87.1036	0.79	0.07	5.00	5.00	7.412	5.14744	7.31486	161.9
8.4379	87.1436	0.79	0.07	5.00	5.00	7.412	5.14933	7.31754	155.1
8.4579	87.1836	0.79	0.07	5.00	5.00	7.412	5.15122	7.32023	146.7
8.4779	87.2236	0.79	0.07	5.00	5.00	7.412	5.15311	7.32291	137.2
8.4979	87.2636	0.79	0.07	5.00	5.00	7.412	5.15499	7.32560	136.4
8.5179	87.3036	0.79	0.07	5.00	5.00	7.412	5.15688	7.32828	133.0
8.5379	87.3436	0.79	0.07	5.00	5.00	7.412	5.15877	7.33096	128.4
8.5579	87.3836	0.79	0.07	5.00	5.00	7.412	5.16065	7.33364	128.2
8.5779	87.4236	0.79	0.07	5.00	5.00	7.412	5.16254	7.33632	122.0
8.5979	87.4636	0.79	0.07	5.00	5.00	7.412	5.16442	7.33900	117.3
8.6179	87.5036	0.79	0.07	5.00	5.00	7.412	5.16631	7.34167	116.3
8.6379	87.5436	0.79	0.07	5.00	5.00	7.412	5.16819	7.34435	109.6
8.6579	87.5836	0.79	0.07	5.00	5.00	7.412	5.17007	7.34703	111.7
8.6779	87.6236	0.79	0.07	5.00	5.00	7.412	5.17195	7.34970	109.0
8.6979	87.6636	0.79	0.07	5.00	5.00	7.412	5.17384	7.35237	102.3
8.7179	87.7036	0.79	0.07	5.00	5.00	7.412	5.17572	7.35505	97.5
8.7379	87.7436	0.79	0.07	5.00	5.00	7.412	5.17760	7.35772	98.5
8.7579	87.7836	0.79	0.07	5.00	5.00	7.412	5.17948	7.36039	98.4
8.7779	87.8236	0.79	0.07	5.00	5.00	7.412	5.18136	7.36306	92.7
8.7979	87.8636	0.79	0.07	5.00	5.00	7.412	5.18323	7.36573	92.4
8.8179	87.9036	0.79	0.07	5.00	5.00	7.412	5.18511	7.36840	86.8
8.8379	87.9436	0.79	0.07	5.00	5.00	7.412	5.18699	7.37106	84.5
8.8579	87.9836	0.79	0.07	5.00	5.00	7.412	5.18887	7.37373	92.1
8.8779	88.0236	0.79	0.07	5.00	5.00	7.412	5.19074	7.37640	826.8
8.8979	88.0636	0.79	0.07	5.00	5.00	7.412	5.19262	7.37906	1156.3
8.9179	88.1036	0.79	0.07	5.00	5.00	7.412	5.19449	7.38173	105.5
8.9379	88.1436	0.79	0.07	5.00	5.00	7.412	5.19637	7.38439	10.9
8.9579	88.1836	0.79	0.07	5.00	5.00	7.412	5.19824	7.38705	5.4
8.9779	88.2236	0.79	0.07	5.00	5.00	7.412	5.20011	7.38971	4.2
8.9979	88.2636	0.79	0.07	5.00	5.00	7.412	5.20198	7.39237	3.3
9.0179	88.3036	0.79	0.07	5.00	5.00	7.412	5.20385	7.39503	2.7
9.0379	88.3436	0.79	0.07	5.00	5.00	7.412	5.20573	7.39769	2.6
9.0579	88.3836	0.79	0.07	5.00	5.00	7.412	5.20760	7.40035	2.0
9.0779	88.4236	0.79	0.07	5.00	5.00	7.412	5.20946	7.40300	2.4
9.0979	88.4636	0.79	0.07	5.00	5.00	7.412	5.21133	7.40566	2.1
9.1179	88.5036	0.79	0.07	5.00	5.00	7.412	5.21320	7.40831	2.3
9.1379	88.5436	0.79	0.07	5.00	5.00	7.412	5.21507	7.41097	2.0
9.1579	88.5836	0.79	0.07	5.00	5.00	7.412	5.21694	7.41362	2.0
9.1779	88.6236	0.79	0.07	5.00	5.00	7.412	5.21880	7.41627	1.9
9.1979	88.6636	0.79	0.07	5.00	5.00	7.412	5.22067	7.41893	1.6
9.2179	88.7036	0.79	0.07	5.00	5.00	7.412	5.22253	7.42158	2.0
9.2379	88.7436	0.79	0.07	5.00	5.00	7.412	5.22440	7.42423	1.7
9.2579	88.7836	0.79	0.07	5.00	5.00	7.412	5.22626	7.42687	1.5
9.2779	88.8236	0.79	0.07	5.00	5.00	7.412	5.22813	7.42952	1.5
9.2979	88.8636	0.79	0.07	5.00	5.00	7.412	5.22999	7.43217	1.9
9.3179	88.9036	0.79	0.07	5.00	5.00	7.412	5.23185	7.43481	1.6
9.3379	88.9436	0.79	0.07	5.00	5.00	7.412	5.23371	7.43746	1.6
9.3579	88.9836	0.79	0.07	5.00	5.00	7.412	5.23557	7.44010	1.9
9.3779	89.0236	0.79	0.07	5.00	5.00	7.412	5.23743	7.44275	1.1