File: Data/Omega2Theta/2.0deg-2.0deg-rsm-3h10mins_11358-annealed_224_w_000-100.dat
# filename: 2.0deg-2.0deg-rsm-3h10mins_11358-annealed_224.dat
# reflection: (004)
# type: Projection of 100 omega2theta scans
# x-axis: omega2theta
#
# Omega	2Theta	Phi  	Chi   	X    	Y    	Z    	q_para	q_perp	Intensity
# [deg]	[deg] 	[deg]	[deg] 	[mm] 	[mm] 	[mm] 	[nm-1]	[nm-1]	[counts/s]
7.1544	85.0724	-0.24	0.13	0.00	-23.01	7.396	5.08167	7.15541	1.4
7.1744	85.1124	-0.24	0.13	0.00	-23.01	7.396	5.08360	7.15813	1.3
7.1944	85.1524	-0.24	0.13	0.00	-23.01	7.396	5.08553	7.16085	1.7
7.2144	85.1924	-0.24	0.13	0.00	-23.01	7.396	5.08746	7.16358	1.2
7.2344	85.2324	-0.24	0.13	0.00	-23.01	7.396	5.08939	7.16629	1.0
7.2544	85.2724	-0.24	0.13	0.00	-23.01	7.396	5.09133	7.16901	1.4
7.2744	85.3124	-0.24	0.13	0.00	-23.01	7.396	5.09326	7.17173	1.4
7.2944	85.3524	-0.24	0.13	0.00	-23.01	7.396	5.09518	7.17445	1.3
7.3144	85.3924	-0.24	0.13	0.00	-23.01	7.396	5.09711	7.17716	1.2
7.3344	85.4324	-0.24	0.13	0.00	-23.01	7.396	5.09904	7.17988	1.2
7.3544	85.4724	-0.24	0.13	0.00	-23.01	7.396	5.10097	7.18259	1.4
7.3744	85.5124	-0.24	0.13	0.00	-23.01	7.396	5.10290	7.18530	1.5
7.3944	85.5524	-0.24	0.13	0.00	-23.01	7.396	5.10482	7.18802	1.6
7.4144	85.5924	-0.24	0.13	0.00	-23.01	7.396	5.10675	7.19073	1.4
7.4344	85.6324	-0.24	0.13	0.00	-23.01	7.396	5.10867	7.19344	1.8
7.4544	85.6724	-0.24	0.13	0.00	-23.01	7.396	5.11060	7.19615	1.7
7.4744	85.7124	-0.24	0.13	0.00	-23.01	7.396	5.11252	7.19886	1.3
7.4944	85.7524	-0.24	0.13	0.00	-23.01	7.396	5.11444	7.20156	1.7
7.5144	85.7924	-0.24	0.13	0.00	-23.01	7.396	5.11637	7.20427	1.6
7.5344	85.8324	-0.24	0.13	0.00	-23.01	7.396	5.11829	7.20698	1.8
7.5544	85.8724	-0.24	0.13	0.00	-23.01	7.396	5.12021	7.20968	1.9
7.5744	85.9124	-0.24	0.13	0.00	-23.01	7.396	5.12213	7.21239	1.8
7.5944	85.9524	-0.24	0.13	0.00	-23.01	7.396	5.12405	7.21509	2.2
7.6144	85.9924	-0.24	0.13	0.00	-23.01	7.396	5.12597	7.21779	2.5
7.6344	86.0324	-0.24	0.13	0.00	-23.01	7.396	5.12789	7.22050	2.2
7.6544	86.0724	-0.24	0.13	0.00	-23.01	7.396	5.12981	7.22320	3.3
7.6744	86.1124	-0.24	0.13	0.00	-23.01	7.396	5.13172	7.22590	3.7
7.6944	86.1524	-0.24	0.13	0.00	-23.01	7.396	5.13364	7.22860	3.8
7.7144	86.1924	-0.24	0.13	0.00	-23.01	7.396	5.13556	7.23129	4.7
7.7344	86.2324	-0.24	0.13	0.00	-23.01	7.396	5.13747	7.23399	5.9
7.7544	86.2724	-0.24	0.13	0.00	-23.01	7.396	5.13939	7.23669	12.2
7.7744	86.3124	-0.24	0.13	0.00	-23.01	7.396	5.14130	7.23938	61.6
7.7944	86.3524	-0.24	0.13	0.00	-23.01	7.396	5.14321	7.24208	886.2
7.8144	86.3924	-0.24	0.13	0.00	-23.01	7.396	5.14513	7.24477	2512.3
7.8344	86.4324	-0.24	0.13	0.00	-23.01	7.396	5.14704	7.24746	514.8
7.8544	86.4724	-0.24	0.13	0.00	-23.01	7.396	5.14895	7.25016	203.9
7.8744	86.5124	-0.24	0.13	0.00	-23.01	7.396	5.15086	7.25285	176.1
7.8944	86.5524	-0.24	0.13	0.00	-23.01	7.396	5.15277	7.25554	171.9
7.9144	86.5924	-0.24	0.13	0.00	-23.01	7.396	5.15468	7.25823	165.9
7.9344	86.6324	-0.24	0.13	0.00	-23.01	7.396	5.15659	7.26092	167.3
7.9544	86.6724	-0.24	0.13	0.00	-23.01	7.396	5.15850	7.26360	170.2
7.9744	86.7124	-0.24	0.13	0.00	-23.01	7.396	5.16041	7.26629	168.1
7.9944	86.7524	-0.24	0.13	0.00	-23.01	7.396	5.16232	7.26898	164.3
8.0144	86.7924	-0.24	0.13	0.00	-23.01	7.396	5.16423	7.27166	158.1
8.0344	86.8324	-0.24	0.13	0.00	-23.01	7.396	5.16613	7.27435	145.9
8.0544	86.8724	-0.24	0.13	0.00	-23.01	7.396	5.16804	7.27703	143.7
8.0744	86.9124	-0.24	0.13	0.00	-23.01	7.396	5.16994	7.27971	137.0
8.0944	86.9524	-0.24	0.13	0.00	-23.01	7.396	5.17185	7.28239	129.7
8.1144	86.9924	-0.24	0.13	0.00	-23.01	7.396	5.17375	7.28507	127.9
8.1344	87.0324	-0.24	0.13	0.00	-23.01	7.396	5.17565	7.28775	123.9
8.1544	87.0724	-0.24	0.13	0.00	-23.01	7.396	5.17755	7.29043	120.7
8.1744	87.1124	-0.24	0.13	0.00	-23.01	7.396	5.17946	7.29311	119.0
8.1944	87.1524	-0.24	0.13	0.00	-23.01	7.396	5.18136	7.29579	116.6
8.2144	87.1924	-0.24	0.13	0.00	-23.01	7.396	5.18326	7.29846	114.5
8.2344	87.2324	-0.24	0.13	0.00	-23.01	7.396	5.18516	7.30114	107.6
8.2544	87.2724	-0.24	0.13	0.00	-23.01	7.396	5.18706	7.30381	104.1
8.2744	87.3124	-0.24	0.13	0.00	-23.01	7.396	5.18896	7.30648	100.3
8.2944	87.3524	-0.24	0.13	0.00	-23.01	7.396	5.19085	7.30916	101.6
8.3144	87.3924	-0.24	0.13	0.00	-23.01	7.396	5.19275	7.31183	100.5
8.3344	87.4324	-0.24	0.13	0.00	-23.01	7.396	5.19465	7.31450	96.4
8.3544	87.4724	-0.24	0.13	0.00	-23.01	7.396	5.19654	7.31717	94.0
8.3744	87.5124	-0.24	0.13	0.00	-23.01	7.396	5.19844	7.31984	88.1
8.3944	87.5524	-0.24	0.13	0.00	-23.01	7.396	5.20033	7.32251	89.2
8.4144	87.5924	-0.24	0.13	0.00	-23.01	7.396	5.20223	7.32517	88.0
8.4344	87.6324	-0.24	0.13	0.00	-23.01	7.396	5.20412	7.32784	85.9
8.4544	87.6724	-0.24	0.13	0.00	-23.01	7.396	5.20602	7.33050	81.6
8.4744	87.7124	-0.24	0.13	0.00	-23.01	7.396	5.20791	7.33317	79.0
8.4944	87.7524	-0.24	0.13	0.00	-23.01	7.396	5.20980	7.33583	78.5
8.5144	87.7924	-0.24	0.13	0.00	-23.01	7.396	5.21169	7.33850	78.3
8.5344	87.8324	-0.24	0.13	0.00	-23.01	7.396	5.21358	7.34116	73.2
8.5544	87.8724	-0.24	0.13	0.00	-23.01	7.396	5.21547	7.34382	66.5
8.5744	87.9124	-0.24	0.13	0.00	-23.01	7.396	5.21736	7.34648	67.5
8.5944	87.9524	-0.24	0.13	0.00	-23.01	7.396	5.21925	7.34914	63.5
8.6144	87.9924	-0.24	0.13	0.00	-23.01	7.396	5.22114	7.35180	81.1
8.6344	88.0324	-0.24	0.13	0.00	-23.01	7.396	5.22302	7.35445	964.3
8.6544	88.0724	-0.24	0.13	0.00	-23.01	7.396	5.22491	7.35711	1031.5
8.6744	88.1124	-0.24	0.13	0.00	-23.01	7.396	5.22680	7.35977	136.4
8.6944	88.1524	-0.24	0.13	0.00	-23.01	7.396	5.22868	7.36242	13.4
8.7144	88.1924	-0.24	0.13	0.00	-23.01	7.396	5.23057	7.36507	5.9
8.7344	88.2324	-0.24	0.13	0.00	-23.01	7.396	5.23245	7.36773	3.1
8.7544	88.2724	-0.24	0.13	0.00	-23.01	7.396	5.23433	7.37038	2.7
8.7744	88.3124	-0.24	0.13	0.00	-23.01	7.396	5.23622	7.37303	2.0
8.7944	88.3524	-0.24	0.13	0.00	-23.01	7.396	5.23810	7.37568	2.1
8.8144	88.3924	-0.24	0.13	0.00	-23.01	7.396	5.23998	7.37833	2.6
8.8344	88.4324	-0.24	0.13	0.00	-23.01	7.396	5.24186	7.38098	1.7
8.8544	88.4724	-0.24	0.13	0.00	-23.01	7.396	5.24374	7.38363	1.7
8.8744	88.5124	-0.24	0.13	0.00	-23.01	7.396	5.24562	7.38627	2.2
8.8944	88.5524	-0.24	0.13	0.00	-23.01	7.396	5.24750	7.38892	1.6
8.9144	88.5924	-0.24	0.13	0.00	-23.01	7.396	5.24938	7.39156	1.6
8.9344	88.6324	-0.24	0.13	0.00	-23.01	7.396	5.25125	7.39421	1.7
8.9544	88.6724	-0.24	0.13	0.00	-23.01	7.396	5.25313	7.39685	1.8
8.9744	88.7124	-0.24	0.13	0.00	-23.01	7.396	5.25501	7.39949	1.9
8.9944	88.7524	-0.24	0.13	0.00	-23.01	7.396	5.25688	7.40213	1.2
9.0144	88.7924	-0.24	0.13	0.00	-23.01	7.396	5.25876	7.40477	1.5
9.0344	88.8324	-0.24	0.13	0.00	-23.01	7.396	5.26063	7.40741	1.4
9.0544	88.8724	-0.24	0.13	0.00	-23.01	7.396	5.26251	7.41005	1.3
9.0744	88.9124	-0.24	0.13	0.00	-23.01	7.396	5.26438	7.41269	1.3
9.0944	88.9524	-0.24	0.13	0.00	-23.01	7.396	5.26625	7.41532	1.7
9.1144	88.9924	-0.24	0.13	0.00	-23.01	7.396	5.26813	7.41796	1.5
9.1344	89.0324	-0.24	0.13	0.00	-23.01	7.396	5.27000	7.42060	1.3