File: Data/Omega2Theta/2.0deg-2.0deg-rsm-3h10mins_11352-as-grown_224_w_000-100.dat
# filename: 2.0deg-2.0deg-rsm-3h10mins_11352-as-grown_224.dat
# reflection: (004)
# type: Projection of 100 omega2theta scans
# x-axis: omega2theta
#
# Omega	2Theta	Phi  	Chi   	X    	Y    	Z    	q_para	q_perp	Intensity
# [deg]	[deg] 	[deg]	[deg] 	[mm] 	[mm] 	[mm] 	[nm-1]	[nm-1]	[counts/s]
7.1511	85.0724	1.28	0.08	-30.00	20.00	7.317	5.08208	7.15512	1.4
7.1711	85.1124	1.28	0.08	-30.00	20.00	7.317	5.08401	7.15784	1.4
7.1911	85.1524	1.28	0.08	-30.00	20.00	7.317	5.08594	7.16056	1.4
7.2111	85.1924	1.28	0.08	-30.00	20.00	7.317	5.08788	7.16328	1.2
7.2311	85.2324	1.28	0.08	-30.00	20.00	7.317	5.08981	7.16600	1.4
7.2511	85.2724	1.28	0.08	-30.00	20.00	7.317	5.09174	7.16872	1.6
7.2711	85.3124	1.28	0.08	-30.00	20.00	7.317	5.09367	7.17144	1.7
7.2911	85.3524	1.28	0.08	-30.00	20.00	7.317	5.09560	7.17415	1.5
7.3111	85.3924	1.28	0.08	-30.00	20.00	7.317	5.09753	7.17687	1.4
7.3311	85.4324	1.28	0.08	-30.00	20.00	7.317	5.09946	7.17958	1.3
7.3511	85.4724	1.28	0.08	-30.00	20.00	7.317	5.10138	7.18230	1.7
7.3711	85.5124	1.28	0.08	-30.00	20.00	7.317	5.10331	7.18501	1.6
7.3911	85.5524	1.28	0.08	-30.00	20.00	7.317	5.10524	7.18772	1.6
7.4111	85.5924	1.28	0.08	-30.00	20.00	7.317	5.10716	7.19043	2.2
7.4311	85.6324	1.28	0.08	-30.00	20.00	7.317	5.10909	7.19314	1.6
7.4511	85.6724	1.28	0.08	-30.00	20.00	7.317	5.11101	7.19585	1.6
7.4711	85.7124	1.28	0.08	-30.00	20.00	7.317	5.11294	7.19856	2.0
7.4911	85.7524	1.28	0.08	-30.00	20.00	7.317	5.11486	7.20127	1.8
7.5111	85.7924	1.28	0.08	-30.00	20.00	7.317	5.11678	7.20398	2.0
7.5311	85.8324	1.28	0.08	-30.00	20.00	7.317	5.11870	7.20668	2.2
7.5511	85.8724	1.28	0.08	-30.00	20.00	7.317	5.12062	7.20939	2.3
7.5711	85.9124	1.28	0.08	-30.00	20.00	7.317	5.12255	7.21209	2.2
7.5911	85.9524	1.28	0.08	-30.00	20.00	7.317	5.12447	7.21480	2.3
7.6111	85.9924	1.28	0.08	-30.00	20.00	7.317	5.12639	7.21750	2.4
7.6311	86.0324	1.28	0.08	-30.00	20.00	7.317	5.12830	7.22020	2.9
7.6511	86.0724	1.28	0.08	-30.00	20.00	7.317	5.13022	7.22290	2.9
7.6711	86.1124	1.28	0.08	-30.00	20.00	7.317	5.13214	7.22560	3.2
7.6911	86.1524	1.28	0.08	-30.00	20.00	7.317	5.13406	7.22830	3.8
7.7111	86.1924	1.28	0.08	-30.00	20.00	7.317	5.13597	7.23100	4.2
7.7311	86.2324	1.28	0.08	-30.00	20.00	7.317	5.13789	7.23369	5.4
7.7511	86.2724	1.28	0.08	-30.00	20.00	7.317	5.13980	7.23639	10.5
7.7711	86.3124	1.28	0.08	-30.00	20.00	7.317	5.14172	7.23909	43.7
7.7911	86.3524	1.28	0.08	-30.00	20.00	7.317	5.14363	7.24178	778.2
7.8111	86.3924	1.28	0.08	-30.00	20.00	7.317	5.14555	7.24448	2818.0
7.8311	86.4324	1.28	0.08	-30.00	20.00	7.317	5.14746	7.24717	571.0
7.8511	86.4724	1.28	0.08	-30.00	20.00	7.317	5.14937	7.24986	207.8
7.8711	86.5124	1.28	0.08	-30.00	20.00	7.317	5.15128	7.25255	181.3
7.8911	86.5524	1.28	0.08	-30.00	20.00	7.317	5.15319	7.25524	177.4
7.9111	86.5924	1.28	0.08	-30.00	20.00	7.317	5.15510	7.25793	170.5
7.9311	86.6324	1.28	0.08	-30.00	20.00	7.317	5.15701	7.26062	164.8
7.9511	86.6724	1.28	0.08	-30.00	20.00	7.317	5.15892	7.26331	164.8
7.9711	86.7124	1.28	0.08	-30.00	20.00	7.317	5.16083	7.26599	161.6
7.9911	86.7524	1.28	0.08	-30.00	20.00	7.317	5.16274	7.26868	160.9
8.0111	86.7924	1.28	0.08	-30.00	20.00	7.317	5.16464	7.27136	149.6
8.0311	86.8324	1.28	0.08	-30.00	20.00	7.317	5.16655	7.27405	144.1
8.0511	86.8724	1.28	0.08	-30.00	20.00	7.317	5.16846	7.27673	137.1
8.0711	86.9124	1.28	0.08	-30.00	20.00	7.317	5.17036	7.27941	131.8
8.0911	86.9524	1.28	0.08	-30.00	20.00	7.317	5.17227	7.28209	125.6
8.1111	86.9924	1.28	0.08	-30.00	20.00	7.317	5.17417	7.28478	118.9
8.1311	87.0324	1.28	0.08	-30.00	20.00	7.317	5.17607	7.28745	118.9
8.1511	87.0724	1.28	0.08	-30.00	20.00	7.317	5.17797	7.29013	119.5
8.1711	87.1124	1.28	0.08	-30.00	20.00	7.317	5.17988	7.29281	116.4
8.1911	87.1524	1.28	0.08	-30.00	20.00	7.317	5.18178	7.29549	113.6
8.2111	87.1924	1.28	0.08	-30.00	20.00	7.317	5.18368	7.29816	108.9
8.2311	87.2324	1.28	0.08	-30.00	20.00	7.317	5.18558	7.30084	104.5
8.2511	87.2724	1.28	0.08	-30.00	20.00	7.317	5.18748	7.30351	101.2
8.2711	87.3124	1.28	0.08	-30.00	20.00	7.317	5.18938	7.30619	99.8
8.2911	87.3524	1.28	0.08	-30.00	20.00	7.317	5.19128	7.30886	99.3
8.3111	87.3924	1.28	0.08	-30.00	20.00	7.317	5.19317	7.31153	96.9
8.3311	87.4324	1.28	0.08	-30.00	20.00	7.317	5.19507	7.31420	93.3
8.3511	87.4724	1.28	0.08	-30.00	20.00	7.317	5.19697	7.31687	87.1
8.3711	87.5124	1.28	0.08	-30.00	20.00	7.317	5.19886	7.31954	86.0
8.3911	87.5524	1.28	0.08	-30.00	20.00	7.317	5.20076	7.32221	82.8
8.4111	87.5924	1.28	0.08	-30.00	20.00	7.317	5.20265	7.32487	84.7
8.4311	87.6324	1.28	0.08	-30.00	20.00	7.317	5.20454	7.32754	82.4
8.4511	87.6724	1.28	0.08	-30.00	20.00	7.317	5.20644	7.33021	77.1
8.4711	87.7124	1.28	0.08	-30.00	20.00	7.317	5.20833	7.33287	76.2
8.4911	87.7524	1.28	0.08	-30.00	20.00	7.317	5.21022	7.33553	73.4
8.5111	87.7924	1.28	0.08	-30.00	20.00	7.317	5.21211	7.33820	73.5
8.5311	87.8324	1.28	0.08	-30.00	20.00	7.317	5.21400	7.34086	71.7
8.5511	87.8724	1.28	0.08	-30.00	20.00	7.317	5.21589	7.34352	66.6
8.5711	87.9124	1.28	0.08	-30.00	20.00	7.317	5.21778	7.34618	63.9
8.5911	87.9524	1.28	0.08	-30.00	20.00	7.317	5.21967	7.34884	61.6
8.6111	87.9924	1.28	0.08	-30.00	20.00	7.317	5.22156	7.35150	73.4
8.6311	88.0324	1.28	0.08	-30.00	20.00	7.317	5.22345	7.35415	553.7
8.6511	88.0724	1.28	0.08	-30.00	20.00	7.317	5.22533	7.35681	683.6
8.6711	88.1124	1.28	0.08	-30.00	20.00	7.317	5.22722	7.35947	89.0
8.6911	88.1524	1.28	0.08	-30.00	20.00	7.317	5.22910	7.36212	11.1
8.7111	88.1924	1.28	0.08	-30.00	20.00	7.317	5.23099	7.36477	4.6
8.7311	88.2324	1.28	0.08	-30.00	20.00	7.317	5.23287	7.36743	3.0
8.7511	88.2724	1.28	0.08	-30.00	20.00	7.317	5.23476	7.37008	2.3
8.7711	88.3124	1.28	0.08	-30.00	20.00	7.317	5.23664	7.37273	2.8
8.7911	88.3524	1.28	0.08	-30.00	20.00	7.317	5.23852	7.37538	2.4
8.8111	88.3924	1.28	0.08	-30.00	20.00	7.317	5.24040	7.37803	1.8
8.8311	88.4324	1.28	0.08	-30.00	20.00	7.317	5.24229	7.38068	1.7
8.8511	88.4724	1.28	0.08	-30.00	20.00	7.317	5.24417	7.38332	1.8
8.8711	88.5124	1.28	0.08	-30.00	20.00	7.317	5.24605	7.38597	1.9
8.8911	88.5524	1.28	0.08	-30.00	20.00	7.317	5.24792	7.38862	1.5
8.9111	88.5924	1.28	0.08	-30.00	20.00	7.317	5.24980	7.39126	1.6
8.9311	88.6324	1.28	0.08	-30.00	20.00	7.317	5.25168	7.39390	1.4
8.9511	88.6724	1.28	0.08	-30.00	20.00	7.317	5.25356	7.39655	1.5
8.9711	88.7124	1.28	0.08	-30.00	20.00	7.317	5.25543	7.39919	1.6
8.9911	88.7524	1.28	0.08	-30.00	20.00	7.317	5.25731	7.40183	1.5
9.0111	88.7924	1.28	0.08	-30.00	20.00	7.317	5.25919	7.40447	1.8
9.0311	88.8324	1.28	0.08	-30.00	20.00	7.317	5.26106	7.40711	1.4
9.0511	88.8724	1.28	0.08	-30.00	20.00	7.317	5.26293	7.40975	1.1
9.0711	88.9124	1.28	0.08	-30.00	20.00	7.317	5.26481	7.41238	1.2
9.0911	88.9524	1.28	0.08	-30.00	20.00	7.317	5.26668	7.41502	1.4
9.1111	88.9924	1.28	0.08	-30.00	20.00	7.317	5.26855	7.41766	1.4
9.1311	89.0324	1.28	0.08	-30.00	20.00	7.317	5.27042	7.42029	1.7